* Measurement data measured by REW V5.20.13
* Source: EXCL: Headset (USB-C to 3.5mm Headphone Jack Adapter), MICROPHONE (Master Volume), 0, volume: 0.260. Timing signal peak level -36.7 dBFS, measurement signal peak level -25.1 dBFS
* Format: 256k Log Swept Sine, 1 sweep at -20.0 dBFS using an acoustic timing reference
* Dated: Jun 2, 2023 9:49:11 PM
* REW Settings:
*  C-weighting compensation: Off
*  Target level: 75.0 dB
* Note: Koss Plug
* Measurement: Koss Plug
* Smoothing: 1/12 octave
* Frequency Step: 1/48 octave
* Start Frequency: 20.000 Hz
*
* Freq(Hz)	SPL(dB)	Phase(degrees)
20.000000	88.934	-123.1956
20.299999	88.998	-123.7797
20.600000	89.067	-124.3116
20.900000	89.142	-124.8184
21.200001	89.221	-125.3272
21.400000	89.275	-125.6763
21.799999	89.381	-126.3984
22.000000	89.432	-126.7689
22.400000	89.530	-127.5177
22.700001	89.598	-128.0804
23.000000	89.664	-128.6448
23.299999	89.725	-129.2154
23.600000	89.783	-129.7938
24.000000	89.850	-130.5721
24.299999	89.894	-131.1494
24.700001	89.944	-131.8930
25.000000	89.977	-132.4238
25.400000	90.021	-133.0987
25.799999	90.064	-133.7529
26.200001	90.108	-134.4034
26.500000	90.140	-134.8908
26.900000	90.181	-135.5324
27.200001	90.212	-135.9999
27.600000	90.253	-136.5997
28.000000	90.299	-137.1793
28.500000	90.362	-137.8987
29.000000	90.428	-138.6329
29.500000	90.492	-139.3794
30.000000	90.551	-140.1164
30.400000	90.592	-140.6827
30.700001	90.621	-141.0868
31.100000	90.655	-141.5917
31.500000	90.688	-142.0568
32.000000	90.727	-142.5949
32.500000	90.763	-143.1104
33.000000	90.793	-143.6119
33.500000	90.812	-144.0657
34.000000	90.829	-144.4240
34.500000	90.859	-144.6979
35.000000	90.911	-144.9849
35.500000	90.982	-145.4242
36.000000	91.052	-146.0880
36.500000	91.103	-146.9361
37.000000	91.125	-147.8501
37.500000	91.123	-148.7173
38.200001	91.100	-149.7267
38.700001	91.084	-150.2767
39.500000	91.087	-150.9323
40.000000	91.113	-151.2943
40.599998	91.159	-151.7685
41.200001	91.210	-152.2977
41.799999	91.256	-152.8336
42.500000	91.308	-153.4281
43.099998	91.350	-153.9293
43.700001	91.386	-154.4347
44.400002	91.418	-155.0040
45.000000	91.437	-155.4542
45.500000	91.451	-155.8048
46.200001	91.467	-156.2645
46.799999	91.480	-156.6324
47.500000	91.500	-157.0586
48.200001	91.524	-157.5326
48.700001	91.538	-157.9105
49.400002	91.549	-158.4588
50.000000	91.554	-158.9025
50.799999	91.561	-159.4387
51.500000	91.575	-159.8931
52.200001	91.591	-160.3619
53.000000	91.609	-160.8985
53.799999	91.625	-161.4073
54.500000	91.639	-161.8263
55.200001	91.652	-162.2166
56.000000	91.664	-162.6145
57.000000	91.682	-163.0474
58.000000	91.707	-163.4638
59.000000	91.734	-163.9563
60.000000	91.750	-164.5657
60.799999	91.748	-165.0791
61.500000	91.739	-165.4998
62.200001	91.729	-165.8776
63.000000	91.724	-166.2673
64.000000	91.730	-166.7411
65.000000	91.743	-167.2346
66.000000	91.756	-167.7233
67.000000	91.768	-168.1831
68.000000	91.778	-168.6154
69.000000	91.787	-169.0333
70.000000	91.792	-169.4471
71.000000	91.795	-169.8570
72.000000	91.798	-170.2654
73.000000	91.801	-170.6770
74.000000	91.803	-171.0876
75.000000	91.806	-171.4874
76.199997	91.808	-171.9453
77.500000	91.810	-172.4199
78.800003	91.810	-172.8841
80.000000	91.809	-173.3055
81.199997	91.807	-173.7158
82.500000	91.806	-174.1574
83.800003	91.805	-174.6031
85.000000	91.804	-175.0076
86.199997	91.803	-175.4044
87.500000	91.802	-175.8290
88.500000	91.801	-176.1518
90.000000	91.798	-176.6252
91.199997	91.795	-176.9931
92.500000	91.791	-177.3853
93.800003	91.786	-177.7750
95.000000	91.781	-178.1332
96.199997	91.775	-178.4894
97.500000	91.769	-178.8687
98.800003	91.763	-179.2314
100.000000	91.759	-179.5488
101.500000	91.755	-179.9317
103.000000	91.751	179.6921
104.400002	91.744	179.3465
106.000000	91.735	178.9533
107.500000	91.725	178.5790
109.000000	91.715	178.1992
110.599998	91.705	177.7961
112.000000	91.695	177.4511
113.800003	91.683	177.0188
115.000000	91.675	176.7386
117.199997	91.661	176.2353
118.000000	91.656	176.0529
120.599998	91.640	175.4590
122.000000	91.631	175.1423
124.099998	91.614	174.6829
125.000000	91.607	174.4922
126.500000	91.594	174.1805
128.000000	91.581	173.8747
131.500000	91.552	173.1820
132.000000	91.548	173.0845
134.000000	91.533	172.6946
136.000000	91.517	172.3064
138.000000	91.500	171.9213
140.000000	91.484	171.5370
143.000000	91.459	170.9723
145.000000	91.442	170.6070
147.500000	91.420	170.1542
150.000000	91.396	169.7029
152.500000	91.371	169.2603
155.000000	91.346	168.8343
157.500000	91.321	168.4203
160.000000	91.297	168.0110
162.500000	91.272	167.6088
165.000000	91.250	167.2117
167.500000	91.226	166.8177
170.000000	91.202	166.4311
172.500000	91.176	166.0496
175.000000	91.151	165.6663
177.500000	91.125	165.2831
180.000000	91.099	164.9064
182.500000	91.073	164.5399
185.000000	91.045	164.1824
187.500000	91.017	163.8315
190.000000	90.989	163.4852
192.500000	90.961	163.1438
195.000000	90.933	162.8094
197.500000	90.905	162.4814
200.000000	90.877	162.1573
203.000000	90.844	161.7706
206.000000	90.811	161.3855
209.000000	90.778	161.0046
212.000000	90.743	160.6309
214.000000	90.720	160.3864
218.000000	90.673	159.9072
220.000000	90.650	159.6715
224.000000	90.604	159.2059
227.000000	90.570	158.8600
230.000000	90.535	158.5164
233.000000	90.500	158.1750
236.000000	90.464	157.8365
240.000000	90.416	157.3981
243.000000	90.381	157.0840
247.000000	90.333	156.6771
250.000000	90.296	156.3747
254.000000	90.248	155.9723
258.000000	90.199	155.5713
262.000000	90.150	155.1767
265.000000	90.114	154.8860
269.000000	90.065	154.5028
272.000000	90.028	154.2193
276.000000	89.979	153.8495
280.000000	89.929	153.4882
285.000000	89.867	153.0443
290.000000	89.804	152.6074
295.000000	89.741	152.1770
300.000000	89.677	151.7563
304.000000	89.627	151.4282
307.000000	89.589	151.1866
311.000000	89.540	150.8688
315.000000	89.490	150.5548
320.000000	89.428	150.1675
325.000000	89.365	149.7855
330.000000	89.303	149.4088
335.000000	89.240	149.0377
340.000000	89.178	148.6741
345.000000	89.115	148.3196
350.000000	89.053	147.9734
355.000000	88.991	147.6339
360.000000	88.929	147.2984
365.000000	88.867	146.9636
370.000000	88.806	146.6275
375.000000	88.746	146.2906
382.000000	88.663	145.8187
387.000000	88.604	145.4793
395.000000	88.512	144.9247
400.000000	88.454	144.5664
406.000000	88.384	144.1144
412.000000	88.310	143.6194
418.000000	88.230	143.0736
425.000000	88.120	142.3972
431.000000	88.005	141.8430
437.000000	87.873	141.3954
444.000000	87.711	141.0844
450.000000	87.582	140.9811
455.000000	87.489	140.9521
462.000000	87.380	140.9067
468.000000	87.300	140.8159
475.000000	87.211	140.6362
482.000000	87.120	140.3941
487.000000	87.052	140.1982
494.000000	86.951	139.9105
500.000000	86.857	139.6657
508.000000	86.723	139.3674
515.000000	86.599	139.1536
522.000000	86.471	138.9973
530.000000	86.324	138.8960
538.000000	86.178	138.8774
545.000000	86.057	138.9208
552.000000	85.942	139.0041
560.000000	85.818	139.1297
570.000000	85.676	139.3065
580.000000	85.544	139.4765
590.000000	85.420	139.6270
600.000000	85.302	139.7614
608.000000	85.209	139.8610
615.000000	85.129	139.9449
622.000000	85.049	140.0263
630.000000	84.959	140.1178
640.000000	84.847	140.2340
650.000000	84.735	140.3558
660.000000	84.625	140.4855
670.000000	84.515	140.6242
680.000000	84.406	140.7742
690.000000	84.298	140.9371
700.000000	84.191	141.1141
710.000000	84.085	141.3065
720.000000	83.980	141.5112
730.000000	83.877	141.7271
740.000000	83.776	141.9567
750.000000	83.677	142.2007
762.000000	83.561	142.5118
775.000000	83.439	142.8703
788.000000	83.320	143.2497
800.000000	83.213	143.6177
812.000000	83.109	144.0019
825.000000	83.000	144.4352
838.000000	82.896	144.8842
850.000000	82.803	145.3105
862.000000	82.715	145.7450
875.000000	82.623	146.2225
885.000000	82.555	146.5960
900.000000	82.458	147.1695
912.000000	82.386	147.6378
925.000000	82.313	148.1484
938.000000	82.244	148.6586
950.000000	82.184	149.1280
962.000000	82.128	149.5933
975.000000	82.070	150.0912
988.000000	82.017	150.5822
1000.000000	81.970	151.0287
1015.000000	81.917	151.5778
1030.000000	81.868	152.1163
1044.000000	81.826	152.6071
1060.000000	81.782	153.1512
1075.000000	81.744	153.6431
1090.000000	81.709	154.1172
1106.000000	81.675	154.6031
1120.000000	81.646	155.0118
1138.000000	81.611	155.5150
1150.000000	81.590	155.8362
1172.000000	81.552	156.4000
1180.000000	81.539	156.5988
1206.000000	81.499	157.2208
1220.000000	81.477	157.5384
1241.000000	81.446	157.9962
1250.000000	81.432	158.1883
1265.000000	81.409	158.5043
1280.000000	81.386	158.8141
1315.000000	81.332	159.5166
1320.000000	81.325	159.6157
1340.000000	81.294	160.0110
1360.000000	81.264	160.4047
1380.000000	81.234	160.7982
1400.000000	81.204	161.1930
1430.000000	81.161	161.7876
1450.000000	81.134	162.1857
1475.000000	81.103	162.6860
1500.000000	81.074	163.1917
1525.000000	81.047	163.7057
1550.000000	81.023	164.2277
1575.000000	81.003	164.7542
1600.000000	80.988	165.2834
1625.000000	80.976	165.8129
1650.000000	80.969	166.3387
1675.000000	80.967	166.8562
1700.000000	80.970	167.3625
1725.000000	80.978	167.8572
1750.000000	80.990	168.3364
1775.000000	81.008	168.7949
1800.000000	81.029	169.2292
1825.000000	81.055	169.6361
1850.000000	81.085	170.0121
1875.000000	81.118	170.3559
1900.000000	81.155	170.6669
1925.000000	81.195	170.9424
1950.000000	81.237	171.1782
1975.000000	81.281	171.3706
2000.000000	81.326	171.5168
2030.000000	81.380	171.6287
2060.000000	81.435	171.6709
2090.000000	81.487	171.6444
2120.000000	81.535	171.5501
2140.000000	81.565	171.4498
2180.000000	81.615	171.1638
2200.000000	81.635	170.9816
2240.000000	81.664	170.5477
2270.000000	81.674	170.1709
2300.000000	81.673	169.7617
2330.000000	81.661	169.3305
2360.000000	81.636	168.8867
2400.000000	81.585	168.2927
2430.000000	81.532	167.8601
2470.000000	81.444	167.3220
2500.000000	81.366	166.9599
2540.000000	81.246	166.5481
2580.000000	81.112	166.2320
2620.000000	80.965	166.0229
2650.000000	80.849	165.9407
2690.000000	80.688	165.9346
2720.000000	80.564	166.0099
2760.000000	80.397	166.2175
2800.000000	80.229	166.5441
2850.000000	80.023	167.1099
2900.000000	79.824	167.8398
2950.000000	79.636	168.7222
3000.000000	79.460	169.7410
3040.000000	79.329	170.6440
3070.000000	79.238	171.3682
3110.000000	79.125	172.3910
3150.000000	79.024	173.4722
3200.000000	78.914	174.8931
3250.000000	78.824	176.3784
3300.000000	78.754	177.9177
3350.000000	78.703	179.5011
3400.000000	78.673	-178.8806
3450.000000	78.665	-177.2370
3500.000000	78.679	-175.5790
3550.000000	78.715	-173.9189
3600.000000	78.775	-172.2724
3650.000000	78.856	-170.6624
3700.000000	78.957	-169.1150
3750.000000	79.069	-167.6351
3820.000000	79.233	-165.5336
3870.000000	79.374	-163.8477
3950.000000	79.713	-160.9767
4000.000000	79.996	-159.3270
4060.000000	80.388	-157.5856
4120.000000	80.832	-156.0854
4180.000000	81.334	-154.8226
4250.000000	82.004	-153.7017
4310.000000	82.661	-153.1321
4370.000000	83.402	-153.0475
4440.000000	84.375	-153.7928
4500.000000	85.291	-155.4306
4550.000000	86.088	-157.7379
4620.000000	87.191	-162.8261
4680.000000	88.036	-169.2527
4750.000000	88.772	-179.2741
4820.000000	89.111	168.5778
4870.000000	89.063	159.3674
4940.000000	88.588	147.0934
5000.000000	87.852	138.1401
5080.000000	86.538	129.2371
5150.000000	85.227	124.2119
5220.000000	83.889	121.2713
5300.000000	82.434	119.7503
5380.000000	81.121	119.5197
5450.000000	80.104	119.9651
5520.000000	79.200	120.7636
5600.000000	78.282	121.9264
5700.000000	77.261	123.6306
5800.000000	76.341	125.6053
5900.000000	75.504	127.8644
6000.000000	74.747	130.3631
6080.000000	74.198	132.4904
6150.000000	73.753	134.4290
6220.000000	73.339	136.4369
6300.000000	72.904	138.8148
6400.000000	72.417	141.8951
6500.000000	71.993	145.0618
6600.000000	71.631	148.2838
6700.000000	71.328	151.5376
6800.000000	71.083	154.8062
6900.000000	70.894	158.0771
7000.000000	70.761	161.3334
7100.000000	70.685	164.5548
7200.000000	70.667	167.7188
7300.000000	70.708	170.8002
7400.000000	70.806	173.7736
7500.000000	70.962	176.6163
7620.000000	71.227	179.8239
7750.000000	71.613	-177.0181
7880.000000	72.107	-174.3071
8000.000000	72.657	-172.3374
8120.000000	73.291	-171.0366
8250.000000	74.047	-170.6024
8380.000000	74.833	-171.4338
8500.000000	75.529	-173.5071
8620.000000	76.131	-176.8789
8750.000000	76.609	178.2131
8850.000000	76.821	173.8836
9000.000000	76.876	167.3009
9120.000000	76.727	162.5869
9250.000000	76.445	158.4194
9380.000000	76.115	155.2342
9500.000000	75.822	152.9489
9620.000000	75.567	151.0213
9750.000000	75.337	149.0807
9880.000000	75.141	147.1369
10000.000000	74.975	145.3058
10150.000000	74.781	143.0169
10300.000000	74.614	140.7920
10440.000000	74.511	138.7530
10600.000000	74.506	136.2788
10750.000000	74.652	133.4458
10900.000000	74.960	129.5302
11060.000000	75.423	123.2766
11200.000000	75.829	115.2747
11380.000000	76.114	101.0300
11500.000000	76.027	89.5052
11720.000000	75.107	67.0940
11800.000000	74.520	59.4606
12060.000000	71.850	39.5867
12200.000000	70.092	32.2442
12410.000000	67.319	24.5906
12500.000000	66.144	22.1682
12650.000000	64.265	18.8391
12800.000000	62.523	16.0511
13150.000000	59.068	10.2769
13200.000000	58.639	9.4625
13400.000000	57.057	6.1740
13600.000000	55.653	2.9052
13800.000000	54.382	-0.1826
14000.000000	53.212	-2.9118
14300.000000	51.593	-5.9859
14500.000000	50.571	-6.9763
14750.000000	49.350	-6.3070
15000.000000	48.296	-2.6463
15250.000000	47.840	4.8279
15500.000000	48.804	15.3635
15750.000000	51.235	24.7970
16000.000000	54.075	27.4508
16250.000000	56.577	20.6664
16500.000000	58.520	5.8722
16750.000000	59.913	-14.0469
17000.000000	60.823	-37.0354
17250.000000	61.279	-62.1823
17500.000000	61.259	-88.8510
17750.000000	60.728	-115.9430
18000.000000	59.707	-142.0624
18250.000000	58.294	-166.2733
18500.000000	56.650	171.3622
18750.000000	54.965	149.9485
19000.000000	53.409	128.3495
19250.000000	52.078	105.8211
19500.000000	50.995	82.9494
19750.000000	50.159	62.7198
