* Measurement data measured by REW V5.20.13
* Source: EXCL: Headset (USB-C to 3.5mm Headphone Jack Adapter), MICROPHONE (Master Volume), 0, volume: 0.260. Timing signal peak level -34.7 dBFS, measurement signal peak level -34.8 dBFS
* Format: 256k Log Swept Sine, 1 sweep at -20.0 dBFS using an acoustic timing reference
* Dated: May 29, 2023 4:49:43 PM
* REW Settings:
*  C-weighting compensation: Off
*  Target level: 75.0 dB
* Note: LetShuoer S12
* Measurement: LetShuoer S12
* Smoothing: 1/12 octave
* Frequency Step: 1/48 octave
* Start Frequency: 20.000 Hz
*
* Freq(Hz)	SPL(dB)	Phase(degrees)
20.000000	72.675	-111.3462
20.299999	72.750	-112.5154
20.600000	72.808	-113.6012
20.900000	72.856	-114.5512
21.200001	72.906	-115.3447
21.400000	72.946	-115.8073
21.799999	73.050	-116.6614
22.000000	73.114	-117.1062
22.400000	73.256	-118.1385
22.700001	73.359	-119.0771
23.000000	73.445	-120.1424
23.299999	73.506	-121.2664
23.600000	73.539	-122.3689
24.000000	73.550	-123.6803
24.299999	73.545	-124.4811
24.700001	73.544	-125.3038
25.000000	73.561	-125.7993
25.400000	73.616	-126.4302
25.799999	73.698	-127.1854
26.200001	73.787	-128.1570
26.500000	73.843	-129.0137
26.900000	73.890	-130.2375
27.200001	73.902	-131.1216
27.600000	73.896	-132.1328
28.000000	73.885	-132.8635
28.500000	73.905	-133.3966
29.000000	74.001	-133.7347
29.500000	74.178	-134.2250
30.000000	74.395	-135.1860
30.400000	74.558	-136.3666
30.700001	74.656	-137.4510
31.100000	74.738	-139.0231
31.500000	74.764	-140.5682
32.000000	74.735	-142.2387
32.500000	74.668	-143.5330
33.000000	74.588	-144.5128
33.500000	74.497	-145.2258
34.000000	74.400	-145.6101
34.500000	74.327	-145.6216
35.000000	74.319	-145.4214
35.500000	74.388	-145.3884
36.000000	74.497	-145.8453
36.500000	74.589	-146.8277
37.000000	74.630	-148.1042
37.500000	74.623	-149.4047
38.200001	74.576	-151.0128
38.700001	74.542	-152.0117
39.500000	74.511	-153.4679
40.000000	74.505	-154.3308
40.599998	74.507	-155.3275
41.200001	74.516	-156.2448
41.799999	74.535	-157.0533
42.500000	74.573	-157.9176
43.099998	74.612	-158.6769
43.700001	74.642	-159.4750
44.400002	74.655	-160.4437
45.000000	74.634	-161.2920
45.500000	74.588	-161.9433
46.200001	74.488	-162.5812
46.799999	74.409	-162.8041
47.500000	74.374	-162.9518
48.200001	74.390	-163.3756
48.700001	74.406	-163.9093
49.400002	74.411	-164.8155
50.000000	74.408	-165.5934
50.799999	74.411	-166.5894
51.500000	74.423	-167.4567
52.200001	74.434	-168.3156
53.000000	74.435	-169.2464
53.799999	74.415	-170.0369
54.500000	74.383	-170.5429
55.200001	74.352	-170.9162
56.000000	74.317	-171.3442
57.000000	74.238	-171.9579
58.000000	74.115	-172.3269
59.000000	74.037	-172.3957
60.000000	74.048	-172.8001
60.799999	74.068	-173.6116
61.500000	74.061	-174.5104
62.200001	74.035	-175.3829
63.000000	74.000	-176.2455
64.000000	73.969	-177.1687
65.000000	73.945	-177.9806
66.000000	73.917	-178.6374
67.000000	73.890	-179.1303
68.000000	73.866	-179.5487
69.000000	73.838	-179.9759
70.000000	73.801	179.5701
71.000000	73.756	179.0775
72.000000	73.704	178.5352
73.000000	73.651	177.9635
74.000000	73.604	177.3744
75.000000	73.564	176.7545
76.199997	73.521	175.9844
77.500000	73.467	175.2454
78.800003	73.412	174.7310
80.000000	73.370	174.4066
81.199997	73.332	174.0977
82.500000	73.282	173.6951
83.800003	73.214	173.2316
85.000000	73.141	172.7937
86.199997	73.068	172.3723
87.500000	72.998	171.9624
88.500000	72.953	171.6778
90.000000	72.895	171.2731
91.199997	72.849	170.9545
92.500000	72.794	170.5918
93.800003	72.732	170.2097
95.000000	72.677	169.8362
96.199997	72.630	169.4163
97.500000	72.581	168.9227
98.800003	72.528	168.4969
100.000000	72.476	168.2323
101.500000	72.407	168.0062
103.000000	72.325	167.7945
104.400002	72.238	167.5503
106.000000	72.141	167.1606
107.500000	72.059	166.7526
109.000000	71.995	166.4886
110.599998	71.960	166.4002
112.000000	71.949	166.3161
113.800003	71.935	166.0402
115.000000	71.937	165.6922
117.199997	71.962	164.4873
118.000000	71.953	163.9523
120.599998	71.808	163.2589
122.000000	71.719	163.6774
124.099998	71.593	164.3509
125.000000	71.526	164.5214
126.500000	71.406	164.6599
128.000000	71.296	164.5985
131.500000	71.047	164.0052
132.000000	71.009	163.9445
134.000000	70.871	163.7975
136.000000	70.781	163.6352
138.000000	70.731	163.4208
140.000000	70.696	163.3232
143.000000	70.623	163.3917
145.000000	70.555	163.4106
147.500000	70.465	163.3080
150.000000	70.363	163.0632
152.500000	70.236	162.6001
155.000000	70.071	161.9591
157.500000	69.867	161.8519
160.000000	69.727	162.6313
162.500000	69.722	163.4844
165.000000	69.800	164.0638
167.500000	69.906	164.6207
170.000000	69.956	164.9710
172.500000	69.896	165.0517
175.000000	69.784	164.9449
177.500000	69.683	164.7869
180.000000	69.601	164.7128
182.500000	69.524	164.7154
185.000000	69.444	164.7389
187.500000	69.366	164.7762
190.000000	69.289	164.8264
192.500000	69.216	164.8733
195.000000	69.145	164.9173
197.500000	69.077	164.9815
200.000000	69.012	165.0854
203.000000	68.936	165.2496
206.000000	68.858	165.4267
209.000000	68.776	165.6059
212.000000	68.695	165.7884
214.000000	68.645	165.9153
218.000000	68.552	166.1907
220.000000	68.508	166.3358
224.000000	68.419	166.6327
227.000000	68.351	166.8593
230.000000	68.281	167.0892
233.000000	68.212	167.3332
236.000000	68.147	167.6021
240.000000	68.068	167.9821
243.000000	68.013	168.2555
247.000000	67.939	168.5994
250.000000	67.884	168.8551
254.000000	67.816	169.1938
258.000000	67.752	169.5179
262.000000	67.688	169.8160
265.000000	67.637	170.0344
269.000000	67.569	170.3329
272.000000	67.518	170.5629
276.000000	67.450	170.8857
280.000000	67.379	171.2332
285.000000	67.284	171.6887
290.000000	67.187	172.1457
295.000000	67.094	172.6046
300.000000	67.007	173.0950
304.000000	66.938	173.5165
307.000000	66.885	173.8456
311.000000	66.813	174.2881
315.000000	66.740	174.7314
320.000000	66.649	175.3217
325.000000	66.556	176.0094
330.000000	66.462	176.8501
335.000000	66.373	177.8665
340.000000	66.309	179.0243
345.000000	66.292	-179.7756
350.000000	66.323	-178.6901
355.000000	66.383	-177.8864
360.000000	66.441	-177.4299
365.000000	66.474	-177.2276
370.000000	66.477	-177.1174
375.000000	66.453	-176.9803
382.000000	66.394	-176.6559
387.000000	66.344	-176.3255
395.000000	66.265	-175.6658
400.000000	66.219	-175.1992
406.000000	66.165	-174.6128
412.000000	66.114	-174.0168
418.000000	66.066	-173.4207
425.000000	66.008	-172.7181
431.000000	65.960	-172.0936
437.000000	65.915	-171.4379
444.000000	65.869	-170.6561
450.000000	65.834	-169.9865
455.000000	65.807	-169.4270
462.000000	65.772	-168.6453
468.000000	65.742	-167.9829
475.000000	65.708	-167.2123
482.000000	65.676	-166.4327
487.000000	65.654	-165.8727
494.000000	65.624	-165.0890
500.000000	65.600	-164.4146
508.000000	65.572	-163.5113
515.000000	65.551	-162.7249
522.000000	65.532	-161.9465
530.000000	65.512	-161.0598
538.000000	65.494	-160.1690
545.000000	65.477	-159.3867
552.000000	65.461	-158.5965
560.000000	65.446	-157.6785
570.000000	65.430	-156.5322
580.000000	65.417	-155.4033
590.000000	65.409	-154.2911
600.000000	65.404	-153.1874
608.000000	65.402	-152.3020
615.000000	65.403	-151.5245
622.000000	65.404	-150.7448
630.000000	65.406	-149.8535
640.000000	65.412	-148.7432
650.000000	65.421	-147.6249
660.000000	65.436	-146.4933
670.000000	65.453	-145.3661
680.000000	65.474	-144.2516
690.000000	65.495	-143.1460
700.000000	65.518	-142.0456
710.000000	65.543	-140.9468
720.000000	65.569	-139.8490
730.000000	65.601	-138.7562
740.000000	65.638	-137.6738
750.000000	65.678	-136.6039
762.000000	65.728	-135.3244
775.000000	65.784	-133.9290
788.000000	65.844	-132.5394
800.000000	65.904	-131.2717
812.000000	65.968	-130.0182
825.000000	66.039	-128.6755
838.000000	66.115	-127.3458
850.000000	66.192	-126.1273
862.000000	66.275	-124.9202
875.000000	66.369	-123.6317
885.000000	66.442	-122.6541
900.000000	66.555	-121.2075
912.000000	66.650	-120.0744
925.000000	66.757	-118.8746
938.000000	66.869	-117.6977
950.000000	66.973	-116.6319
962.000000	67.080	-115.5907
975.000000	67.197	-114.4895
988.000000	67.317	-113.4149
1000.000000	67.431	-112.4500
1015.000000	67.575	-111.2780
1030.000000	67.720	-110.1367
1044.000000	67.856	-109.0959
1060.000000	68.014	-107.9335
1075.000000	68.164	-106.8719
1090.000000	68.319	-105.8365
1106.000000	68.488	-104.7622
1120.000000	68.638	-103.8546
1138.000000	68.834	-102.7445
1150.000000	68.966	-102.0407
1172.000000	69.211	-100.8264
1180.000000	69.301	-100.4115
1206.000000	69.600	-99.1679
1220.000000	69.763	-98.5689
1241.000000	70.008	-97.7752
1250.000000	70.113	-97.4773
1265.000000	70.285	-97.0402
1280.000000	70.453	-96.6795
1315.000000	70.812	-96.1480
1320.000000	70.859	-96.1057
1340.000000	71.031	-96.0021
1360.000000	71.173	-95.9674
1380.000000	71.281	-95.9328
1400.000000	71.357	-95.8155
1430.000000	71.431	-95.3427
1450.000000	71.470	-94.7980
1475.000000	71.526	-93.9043
1500.000000	71.602	-92.8727
1525.000000	71.696	-91.8059
1550.000000	71.796	-90.7598
1575.000000	71.893	-89.7277
1600.000000	71.982	-88.6553
1625.000000	72.064	-87.4729
1650.000000	72.148	-86.1388
1675.000000	72.246	-84.6507
1700.000000	72.368	-83.0406
1725.000000	72.520	-81.3661
1750.000000	72.705	-79.6945
1775.000000	72.920	-78.0832
1800.000000	73.160	-76.5726
1825.000000	73.419	-75.1916
1850.000000	73.691	-73.9587
1875.000000	73.974	-72.8778
1900.000000	74.263	-71.9475
1925.000000	74.555	-71.1668
1950.000000	74.849	-70.5362
1975.000000	75.140	-70.0570
2000.000000	75.426	-69.7282
2030.000000	75.759	-69.5217
2060.000000	76.076	-69.5032
2090.000000	76.375	-69.6553
2120.000000	76.651	-69.9575
2140.000000	76.821	-70.2294
2180.000000	77.125	-70.9028
2200.000000	77.257	-71.2833
2240.000000	77.483	-72.0680
2270.000000	77.620	-72.6148
2300.000000	77.739	-73.0641
2330.000000	77.852	-73.3862
2360.000000	77.976	-73.6178
2400.000000	78.177	-74.0168
2430.000000	78.340	-74.6119
2470.000000	78.515	-75.9402
2500.000000	78.579	-77.1922
2540.000000	78.563	-78.8164
2580.000000	78.463	-80.0728
2620.000000	78.323	-80.8834
2650.000000	78.210	-81.2606
2690.000000	78.056	-81.5655
2720.000000	77.936	-81.6893
2760.000000	77.763	-81.7207
2800.000000	77.574	-81.5681
2850.000000	77.324	-81.0770
2900.000000	77.069	-80.2546
2950.000000	76.821	-79.1389
3000.000000	76.586	-77.7813
3040.000000	76.408	-76.5595
3070.000000	76.281	-75.5797
3110.000000	76.118	-74.1946
3150.000000	75.963	-72.7123
3200.000000	75.783	-70.7076
3250.000000	75.632	-68.5622
3300.000000	75.521	-66.3989
3350.000000	75.445	-64.3965
3400.000000	75.377	-62.6781
3450.000000	75.281	-61.2180
3500.000000	75.130	-59.8329
3550.000000	74.918	-58.2535
3600.000000	74.665	-56.2422
3650.000000	74.412	-53.7141
3700.000000	74.200	-50.7921
3750.000000	74.047	-47.7267
3820.000000	73.898	-43.5367
3870.000000	73.802	-40.5843
3950.000000	73.670	-35.5920
4000.000000	73.630	-32.3083
4060.000000	73.640	-28.3863
4120.000000	73.698	-24.6231
4180.000000	73.789	-21.0613
4250.000000	73.920	-17.1463
4310.000000	74.050	-13.9824
4370.000000	74.191	-10.9924
4440.000000	74.365	-7.7255
4500.000000	74.517	-5.1166
4550.000000	74.642	-3.0719
4620.000000	74.808	-0.3697
4680.000000	74.939	1.8584
4750.000000	75.089	4.4326
4820.000000	75.251	6.9943
4870.000000	75.381	8.7698
4940.000000	75.586	11.0695
5000.000000	75.771	12.7871
5080.000000	76.007	14.6677
5150.000000	76.184	15.9873
5220.000000	76.327	17.1066
5300.000000	76.449	18.2352
5380.000000	76.531	19.2490
5450.000000	76.565	20.0837
5520.000000	76.563	20.9418
5600.000000	76.522	22.0554
5700.000000	76.433	23.7718
5800.000000	76.337	25.8957
5900.000000	76.274	28.3332
6000.000000	76.259	30.8581
6080.000000	76.272	32.7905
6150.000000	76.286	34.3821
6220.000000	76.289	35.9241
6300.000000	76.268	37.7695
6400.000000	76.218	40.5719
6500.000000	76.231	44.3098
6600.000000	76.458	48.7231
6700.000000	76.942	52.7108
6800.000000	77.553	55.4305
6900.000000	78.180	56.9472
7000.000000	78.804	57.5935
7100.000000	79.434	57.4412
7200.000000	80.057	56.3374
7300.000000	80.632	54.0980
7400.000000	81.106	50.6259
7500.000000	81.417	45.9986
7620.000000	81.496	39.4188
7750.000000	81.163	32.2411
7880.000000	80.418	26.5511
8000.000000	79.465	23.4813
8120.000000	78.389	22.5614
8250.000000	77.196	23.6006
8380.000000	76.046	26.3643
8500.000000	75.071	30.1345
8620.000000	74.211	34.7359
8750.000000	73.418	40.3154
8850.000000	72.900	44.8883
9000.000000	72.264	52.0785
9120.000000	71.878	57.9945
9250.000000	71.586	64.3682
9380.000000	71.418	70.4806
9500.000000	71.353	75.7200
9620.000000	71.354	80.4694
9750.000000	71.410	85.0042
9880.000000	71.517	88.8113
10000.000000	71.647	91.4683
10150.000000	71.787	93.2330
10300.000000	71.776	93.1867
10440.000000	71.528	92.0564
10600.000000	70.916	90.5611
10750.000000	70.037	89.9654
10900.000000	68.912	90.8649
11060.000000	67.530	93.7977
11200.000000	66.249	97.9777
11380.000000	64.622	105.1895
11500.000000	63.615	110.8031
11720.000000	62.040	121.6979
11800.000000	61.558	125.6150
12060.000000	60.215	137.7770
12200.000000	59.577	144.1264
12410.000000	58.713	153.7898
12500.000000	58.391	158.0568
12650.000000	57.957	165.3954
12800.000000	57.705	173.0144
13150.000000	58.299	-168.7751
13200.000000	58.566	-166.2413
13400.000000	60.122	-156.9529
13600.000000	62.239	-150.3634
13800.000000	64.546	-147.8875
14000.000000	66.793	-149.8812
14300.000000	69.720	-160.8184
14500.000000	71.175	-172.9028
14750.000000	72.224	168.4948
15000.000000	72.380	150.1678
15250.000000	71.947	136.2617
15500.000000	71.502	126.8744
15750.000000	71.408	118.6283
16000.000000	71.492	108.5373
16250.000000	71.408	96.0325
16500.000000	70.961	82.2363
16750.000000	70.100	68.7933
17000.000000	68.902	57.0190
17250.000000	67.576	46.9515
17500.000000	66.380	37.1251
17750.000000	65.442	25.6201
18000.000000	64.691	11.2930
18250.000000	64.031	-6.3092
18500.000000	63.427	-27.7661
18750.000000	62.844	-53.7762
19000.000000	62.194	-84.3275
19250.000000	61.406	-117.9374
19500.000000	60.527	-151.3869
19750.000000	59.746	-179.7278
