* Measurement data measured by REW V5.20.13
* Source: EXCL: Headset (USB-C to 3.5mm Headphone Jack Adapter), MICROPHONE (Master Volume), 0, volume: 0.260. Timing signal peak level -41.1 dBFS, measurement signal peak level -36.2 dBFS
* Format: 256k Log Swept Sine, 1 sweep at -20.0 dBFS using an acoustic timing reference
* Dated: May 29, 2023 4:57:59 PM
* REW Settings:
*  C-weighting compensation: Off
*  Target level: 75.0 dB
* Note: MoonDrop Quarks
* Measurement: MoonDrop Quarks R
* Smoothing: 1/12 octave
* Frequency Step: 1/48 octave
* Start Frequency: 20.000 Hz
*
* Freq(Hz)	SPL(dB)	Phase(degrees)
20.000000	67.751	-119.8858
20.299999	67.832	-120.4574
20.600000	67.923	-120.9738
20.900000	68.023	-121.5198
21.200001	68.123	-122.1696
21.400000	68.180	-122.6646
21.799999	68.264	-123.7272
22.000000	68.288	-124.2404
22.400000	68.308	-125.1015
22.700001	68.316	-125.5490
23.000000	68.336	-125.8479
23.299999	68.379	-126.0938
23.600000	68.444	-126.3864
24.000000	68.551	-126.9729
24.299999	68.629	-127.5836
24.700001	68.714	-128.5523
25.000000	68.762	-129.3071
25.400000	68.814	-130.2648
25.799999	68.866	-131.1570
26.200001	68.925	-132.0390
26.500000	68.970	-132.7196
26.900000	69.027	-133.6400
27.200001	69.066	-134.3078
27.600000	69.116	-135.1338
28.000000	69.171	-135.8984
28.500000	69.248	-136.8455
29.000000	69.313	-137.7982
29.500000	69.359	-138.6186
30.000000	69.410	-139.1896
30.400000	69.477	-139.5588
30.700001	69.543	-139.8931
31.100000	69.632	-140.5260
31.500000	69.693	-141.3503
32.000000	69.703	-142.3713
32.500000	69.664	-142.9851
33.000000	69.646	-143.0924
33.500000	69.702	-143.0309
34.000000	69.815	-143.2538
34.500000	69.923	-143.9066
35.000000	69.988	-144.7920
35.500000	70.010	-145.6231
36.000000	70.013	-146.2681
36.500000	70.016	-146.7386
37.000000	70.030	-147.0721
37.500000	70.064	-147.3004
38.200001	70.160	-147.6357
38.700001	70.252	-148.0940
39.500000	70.360	-149.3208
40.000000	70.373	-150.1608
40.599998	70.350	-150.9618
41.200001	70.323	-151.4978
41.799999	70.312	-151.9220
42.500000	70.314	-152.4347
43.099998	70.318	-152.8987
43.700001	70.325	-153.3702
44.400002	70.342	-153.9534
45.000000	70.361	-154.5081
45.500000	70.374	-155.0083
46.200001	70.384	-155.7157
46.799999	70.384	-156.2480
47.500000	70.393	-156.7289
48.200001	70.424	-157.1456
48.700001	70.458	-157.4791
49.400002	70.507	-158.0264
50.000000	70.546	-158.5418
50.799999	70.589	-159.2839
51.500000	70.611	-159.9878
52.200001	70.609	-160.6686
53.000000	70.584	-161.2787
53.799999	70.559	-161.6484
54.500000	70.557	-161.8358
55.200001	70.578	-162.0204
56.000000	70.617	-162.3469
57.000000	70.659	-162.9231
58.000000	70.681	-163.6039
59.000000	70.674	-164.2633
60.000000	70.665	-164.7748
60.799999	70.675	-165.2135
61.500000	70.683	-165.6970
62.200001	70.682	-166.2242
63.000000	70.672	-166.8056
64.000000	70.658	-167.4611
65.000000	70.649	-168.0246
66.000000	70.650	-168.5385
67.000000	70.654	-169.0398
68.000000	70.656	-169.5066
69.000000	70.657	-169.9408
70.000000	70.656	-170.3634
71.000000	70.654	-170.7915
72.000000	70.648	-171.2298
73.000000	70.638	-171.6591
74.000000	70.626	-172.0592
75.000000	70.614	-172.4328
76.199997	70.602	-172.8682
77.500000	70.588	-173.3438
78.800003	70.574	-173.8432
80.000000	70.560	-174.3296
81.199997	70.545	-174.8312
82.500000	70.531	-175.3799
83.800003	70.514	-175.8985
85.000000	70.498	-176.3091
86.199997	70.485	-176.6581
87.500000	70.473	-177.0169
88.500000	70.461	-177.3007
90.000000	70.439	-177.7352
91.199997	70.420	-178.0894
92.500000	70.398	-178.4875
93.800003	70.375	-178.8887
95.000000	70.353	-179.2451
96.199997	70.332	-179.5856
97.500000	70.309	-179.9440
98.800003	70.285	179.7042
100.000000	70.263	179.3885
101.500000	70.235	179.0068
103.000000	70.209	178.6290
104.400002	70.185	178.2759
106.000000	70.157	177.8907
107.500000	70.134	177.5570
109.000000	70.114	177.2299
110.599998	70.094	176.8684
112.000000	70.071	176.5505
113.800003	70.034	176.1718
115.000000	70.006	175.9428
117.199997	69.954	175.5442
118.000000	69.935	175.4021
120.599998	69.881	174.9457
122.000000	69.856	174.6934
124.099998	69.817	174.3226
125.000000	69.800	174.1724
126.500000	69.770	173.9286
128.000000	69.739	173.6846
131.500000	69.664	173.1008
132.000000	69.654	173.0171
134.000000	69.613	172.6920
136.000000	69.574	172.3907
138.000000	69.535	172.1117
140.000000	69.497	171.8476
143.000000	69.439	171.4610
145.000000	69.400	171.2098
147.500000	69.351	170.9073
150.000000	69.298	170.6266
152.500000	69.243	170.3623
155.000000	69.188	170.0886
157.500000	69.131	169.8146
160.000000	69.073	169.5792
162.500000	69.016	169.3816
165.000000	68.962	169.1770
167.500000	68.912	168.9329
170.000000	68.866	168.6863
172.500000	68.820	168.4780
175.000000	68.772	168.2997
177.500000	68.721	168.1266
180.000000	68.669	167.9546
182.500000	68.617	167.8004
185.000000	68.565	167.6740
187.500000	68.514	167.5654
190.000000	68.465	167.4547
192.500000	68.416	167.3293
195.000000	68.368	167.1954
197.500000	68.318	167.0709
200.000000	68.267	166.9684
203.000000	68.205	166.8724
206.000000	68.143	166.7957
209.000000	68.083	166.7307
212.000000	68.023	166.6684
214.000000	67.983	166.6249
218.000000	67.907	166.5351
220.000000	67.869	166.4908
224.000000	67.790	166.4075
227.000000	67.731	166.3593
230.000000	67.673	166.3306
233.000000	67.616	166.3133
236.000000	67.557	166.3001
240.000000	67.479	166.2985
243.000000	67.423	166.3079
247.000000	67.354	166.3027
250.000000	67.302	166.2833
254.000000	67.232	166.2646
258.000000	67.160	166.2807
262.000000	67.089	166.3333
265.000000	67.035	166.3888
269.000000	66.964	166.4783
272.000000	66.911	166.5539
276.000000	66.841	166.6576
280.000000	66.773	166.7589
285.000000	66.692	166.8895
290.000000	66.608	167.0464
295.000000	66.519	167.2414
300.000000	66.430	167.4671
304.000000	66.361	167.6611
307.000000	66.310	167.8134
311.000000	66.241	168.0266
315.000000	66.171	168.2471
320.000000	66.084	168.5317
325.000000	65.999	168.8411
330.000000	65.919	169.1971
335.000000	65.846	169.6135
340.000000	65.775	170.0909
345.000000	65.709	170.6099
350.000000	65.651	171.1474
355.000000	65.604	171.6924
360.000000	65.566	172.2473
365.000000	65.538	172.8222
370.000000	65.525	173.4091
375.000000	65.528	173.9674
382.000000	65.557	174.5807
387.000000	65.587	174.8466
395.000000	65.622	175.0026
400.000000	65.623	174.9929
406.000000	65.602	174.9462
412.000000	65.566	174.9202
418.000000	65.518	174.9489
425.000000	65.452	175.0611
431.000000	65.391	175.2234
437.000000	65.330	175.4388
444.000000	65.262	175.7345
450.000000	65.207	176.0037
455.000000	65.162	176.2340
462.000000	65.103	176.5727
468.000000	65.055	176.8855
475.000000	65.000	177.2778
482.000000	64.946	177.6999
487.000000	64.906	178.0175
494.000000	64.851	178.4697
500.000000	64.804	178.8573
508.000000	64.743	179.3833
515.000000	64.692	179.8547
522.000000	64.643	-179.6728
530.000000	64.591	-179.1360
538.000000	64.542	-178.5850
545.000000	64.502	-178.0825
552.000000	64.466	-177.5724
560.000000	64.427	-176.9860
570.000000	64.380	-176.2433
580.000000	64.336	-175.4950
590.000000	64.298	-174.7348
600.000000	64.264	-173.9614
608.000000	64.237	-173.3383
615.000000	64.212	-172.7925
622.000000	64.189	-172.2494
630.000000	64.164	-171.6331
640.000000	64.138	-170.8573
650.000000	64.117	-170.0675
660.000000	64.097	-169.2756
670.000000	64.078	-168.4852
680.000000	64.061	-167.6894
690.000000	64.046	-166.8843
700.000000	64.036	-166.0661
710.000000	64.032	-165.2396
720.000000	64.031	-164.4159
730.000000	64.034	-163.5988
740.000000	64.042	-162.7894
750.000000	64.051	-161.9843
762.000000	64.064	-161.0132
775.000000	64.080	-159.9479
788.000000	64.101	-158.8670
800.000000	64.126	-157.8672
812.000000	64.157	-156.8771
825.000000	64.199	-155.8273
838.000000	64.245	-154.7925
850.000000	64.291	-153.8376
862.000000	64.338	-152.8855
875.000000	64.395	-151.8643
885.000000	64.443	-151.0897
900.000000	64.520	-149.9546
912.000000	64.583	-149.0699
925.000000	64.655	-148.1278
938.000000	64.732	-147.2022
950.000000	64.807	-146.3672
962.000000	64.885	-145.5534
975.000000	64.975	-144.6966
988.000000	65.068	-143.8714
1000.000000	65.157	-143.1423
1015.000000	65.272	-142.2642
1030.000000	65.386	-141.4080
1044.000000	65.493	-140.6305
1060.000000	65.619	-139.7847
1075.000000	65.740	-139.0426
1090.000000	65.861	-138.3422
1106.000000	65.988	-137.6290
1120.000000	66.098	-137.0292
1138.000000	66.238	-136.2927
1150.000000	66.331	-135.8228
1172.000000	66.501	-134.9973
1180.000000	66.562	-134.7090
1206.000000	66.761	-133.8136
1220.000000	66.868	-133.3508
1241.000000	67.025	-132.6814
1250.000000	67.091	-132.4050
1265.000000	67.199	-131.9560
1280.000000	67.306	-131.5158
1315.000000	67.552	-130.5070
1320.000000	67.586	-130.3646
1340.000000	67.723	-129.8005
1360.000000	67.858	-129.2428
1380.000000	67.992	-128.6877
1400.000000	68.126	-128.1396
1430.000000	68.326	-127.3366
1450.000000	68.459	-126.8071
1475.000000	68.627	-126.1419
1500.000000	68.795	-125.4739
1525.000000	68.967	-124.8176
1550.000000	69.144	-124.1925
1575.000000	69.322	-123.6271
1600.000000	69.495	-123.1459
1625.000000	69.651	-122.7054
1650.000000	69.792	-122.1812
1675.000000	69.933	-121.5010
1700.000000	70.089	-120.7080
1725.000000	70.264	-119.8904
1750.000000	70.455	-119.1192
1775.000000	70.653	-118.4198
1800.000000	70.854	-117.7804
1825.000000	71.058	-117.1829
1850.000000	71.263	-116.6167
1875.000000	71.471	-116.0751
1900.000000	71.683	-115.5548
1925.000000	71.899	-115.0579
1950.000000	72.118	-114.5879
1975.000000	72.341	-114.1481
2000.000000	72.567	-113.7404
2030.000000	72.844	-113.2955
2060.000000	73.127	-112.9000
2090.000000	73.414	-112.5575
2120.000000	73.706	-112.2754
2140.000000	73.904	-112.1244
2180.000000	74.308	-111.9179
2200.000000	74.513	-111.8652
2240.000000	74.928	-111.8707
2270.000000	75.244	-111.9793
2300.000000	75.561	-112.1821
2330.000000	75.881	-112.4840
2360.000000	76.201	-112.8929
2400.000000	76.625	-113.6155
2430.000000	76.941	-114.2936
2470.000000	77.353	-115.3791
2500.000000	77.654	-116.3243
2540.000000	78.042	-117.7437
2580.000000	78.416	-119.3228
2620.000000	78.780	-121.0533
2650.000000	79.048	-122.4698
2690.000000	79.400	-124.5806
2720.000000	79.654	-126.3793
2760.000000	79.961	-129.1024
2800.000000	80.217	-132.1691
2850.000000	80.442	-136.3479
2900.000000	80.553	-140.7138
2950.000000	80.547	-145.0616
3000.000000	80.431	-149.1877
3040.000000	80.268	-152.2091
3070.000000	80.112	-154.2694
3110.000000	79.869	-156.7134
3150.000000	79.598	-158.8042
3200.000000	79.236	-160.9519
3250.000000	78.864	-162.6533
3300.000000	78.488	-163.9754
3350.000000	78.111	-164.9472
3400.000000	77.736	-165.5761
3450.000000	77.371	-165.8820
3500.000000	77.023	-165.9082
3550.000000	76.697	-165.7099
3600.000000	76.394	-165.3406
3650.000000	76.113	-164.8431
3700.000000	75.852	-164.2443
3750.000000	75.609	-163.5609
3820.000000	75.296	-162.4835
3870.000000	75.090	-161.6353
3950.000000	74.788	-160.1582
4000.000000	74.618	-159.1711
4060.000000	74.432	-157.9303
4120.000000	74.267	-156.6353
4180.000000	74.123	-155.2948
4250.000000	73.984	-153.6969
4310.000000	73.893	-152.3301
4370.000000	73.827	-151.0023
4440.000000	73.779	-149.5521
4500.000000	73.756	-148.4264
4550.000000	73.745	-147.5795
4620.000000	73.737	-146.5231
4680.000000	73.733	-145.7180
4750.000000	73.729	-144.8706
4820.000000	73.725	-144.1022
4870.000000	73.722	-143.5918
4940.000000	73.719	-142.9138
5000.000000	73.719	-142.3503
5080.000000	73.725	-141.6040
5150.000000	73.746	-140.9550
5220.000000	73.788	-140.3369
5300.000000	73.867	-139.7365
5380.000000	73.976	-139.3351
5450.000000	74.091	-139.2025
5520.000000	74.216	-139.3009
5600.000000	74.365	-139.7039
5700.000000	74.548	-140.6289
5800.000000	74.716	-141.9980
5900.000000	74.860	-143.7869
6000.000000	74.970	-145.9576
6080.000000	75.028	-147.9274
6150.000000	75.054	-149.7835
6220.000000	75.057	-151.7297
6300.000000	75.031	-154.0294
6400.000000	74.959	-156.9729
6500.000000	74.848	-159.9440
6600.000000	74.700	-162.8958
6700.000000	74.519	-165.7842
6800.000000	74.311	-168.5699
6900.000000	74.081	-171.2213
7000.000000	73.835	-173.7116
7100.000000	73.581	-176.0239
7200.000000	73.327	-178.1657
7300.000000	73.080	179.8275
7400.000000	72.841	177.9178
7500.000000	72.609	176.0880
7620.000000	72.340	173.9920
7750.000000	72.064	171.8149
7880.000000	71.806	169.6477
8000.000000	71.579	167.5365
8120.000000	71.349	165.2057
8250.000000	71.063	162.3734
8380.000000	70.694	159.3138
8500.000000	70.245	156.5543
8620.000000	69.681	154.2199
8750.000000	68.956	152.5444
8850.000000	68.346	151.9965
9000.000000	67.403	152.3689
9120.000000	66.670	153.5442
9250.000000	65.927	155.4849
9380.000000	65.252	157.9253
9500.000000	64.689	160.4804
9620.000000	64.181	163.2342
9750.000000	63.685	166.3731
9880.000000	63.238	169.6157
10000.000000	62.863	172.6599
10150.000000	62.440	176.5015
10300.000000	62.060	-179.6370
10440.000000	61.739	-176.0330
10600.000000	61.408	-171.9548
10750.000000	61.133	-168.2069
10900.000000	60.890	-164.5434
11060.000000	60.662	-160.7419
11200.000000	60.489	-157.5258
11380.000000	60.299	-153.5879
11500.000000	60.193	-151.1210
11720.000000	60.042	-147.0034
11800.000000	60.002	-145.6559
12060.000000	59.927	-141.9256
12200.000000	59.917	-140.3691
12410.000000	59.944	-138.7425
12500.000000	59.972	-138.3526
12650.000000	60.043	-138.1828
12800.000000	60.146	-138.6872
13150.000000	60.500	-143.0112
13200.000000	60.562	-144.0524
13400.000000	60.821	-149.4929
13600.000000	61.084	-157.2182
13800.000000	61.309	-167.4418
14000.000000	61.451	179.8515
14300.000000	61.433	156.9720
14500.000000	61.262	140.2087
14750.000000	60.927	119.0111
15000.000000	60.569	98.7668
15250.000000	60.308	80.1554
15500.000000	60.220	63.1651
15750.000000	60.310	47.3004
16000.000000	60.523	31.8409
16250.000000	60.770	16.0712
16500.000000	60.942	-0.5355
16750.000000	60.936	-18.1259
17000.000000	60.676	-36.3799
17250.000000	60.136	-54.6676
17500.000000	59.350	-72.4203
17750.000000	58.398	-89.4548
18000.000000	57.383	-106.0702
18250.000000	56.399	-122.9112
18500.000000	55.502	-140.7678
18750.000000	54.707	-160.4410
19000.000000	53.991	177.4762
19250.000000	53.300	153.0840
19500.000000	52.581	127.9465
19750.000000	51.872	105.8357
