* Measurement data measured by REW V5.20.13
* Source: EXCL: Headset (USB-C to 3.5mm Headphone Jack Adapter), MICROPHONE (Master Volume), 0, volume: 0.260. Timing signal peak level -39.0 dBFS, measurement signal peak level -36.0 dBFS
* Format: 256k Log Swept Sine, 1 sweep at -20.0 dBFS using an acoustic timing reference
* Dated: May 29, 2023 4:52:40 PM
* REW Settings:
*  C-weighting compensation: Off
*  Target level: 75.0 dB
* Note: MoonDrop Starfield
* Measurement: MoonDrop Starfield L
* Smoothing: 1/12 octave
* Frequency Step: 1/48 octave
* Start Frequency: 20.000 Hz
*
* Freq(Hz)	SPL(dB)	Phase(degrees)
20.000000	73.381	-99.7264
20.299999	73.486	-100.4973
20.600000	73.610	-101.3378
20.900000	73.737	-102.3306
21.200001	73.848	-103.4771
21.400000	73.905	-104.2775
21.799999	73.981	-105.8462
22.000000	74.003	-106.5611
22.400000	74.036	-107.7934
22.700001	74.062	-108.5773
23.000000	74.097	-109.3095
23.299999	74.137	-110.0443
23.600000	74.179	-110.7983
24.000000	74.233	-111.8178
24.299999	74.272	-112.5649
24.700001	74.330	-113.5283
25.000000	74.383	-114.2537
25.400000	74.464	-115.2780
25.799999	74.548	-116.3927
26.200001	74.627	-117.5576
26.500000	74.683	-118.4254
26.900000	74.760	-119.5550
27.200001	74.820	-120.3969
27.600000	74.902	-121.5453
28.000000	74.973	-122.7180
28.500000	75.034	-124.0929
29.000000	75.078	-125.1858
29.500000	75.136	-125.9820
30.000000	75.221	-126.6556
30.400000	75.300	-127.2078
30.700001	75.358	-127.6339
31.100000	75.434	-128.1917
31.500000	75.513	-128.7365
32.000000	75.616	-129.4709
32.500000	75.712	-130.3514
33.000000	75.781	-131.3306
33.500000	75.822	-132.2606
34.000000	75.858	-133.0776
34.500000	75.902	-133.8814
35.000000	75.946	-134.7731
35.500000	75.970	-135.7090
36.000000	75.973	-136.5513
36.500000	75.972	-137.2298
37.000000	75.978	-137.7746
37.500000	75.993	-138.2224
38.200001	76.039	-138.6970
38.700001	76.101	-139.0152
39.500000	76.230	-139.8963
40.000000	76.286	-140.7351
40.599998	76.305	-141.8211
41.200001	76.289	-142.7839
41.799999	76.267	-143.6411
42.500000	76.247	-144.6455
43.099998	76.231	-145.5362
43.700001	76.221	-146.4428
44.400002	76.220	-147.5330
45.000000	76.227	-148.4783
45.500000	76.240	-149.2534
46.200001	76.267	-150.3321
46.799999	76.286	-151.2400
47.500000	76.291	-152.1380
48.200001	76.291	-152.7239
48.700001	76.302	-152.9788
49.400002	76.336	-153.2418
50.000000	76.372	-153.4566
50.799999	76.423	-153.7681
51.500000	76.472	-154.1385
52.200001	76.518	-154.7167
53.000000	76.537	-155.6346
53.799999	76.515	-156.5779
54.500000	76.491	-157.2789
55.200001	76.487	-157.9716
56.000000	76.494	-158.8573
57.000000	76.507	-159.8967
58.000000	76.549	-160.9969
59.000000	76.534	-162.3338
60.000000	76.424	-163.1209
60.799999	76.354	-163.2123
61.500000	76.331	-163.2312
62.200001	76.325	-163.3624
63.000000	76.318	-163.6205
64.000000	76.312	-164.0375
65.000000	76.312	-164.5799
66.000000	76.311	-165.2397
67.000000	76.301	-165.9498
68.000000	76.280	-166.6076
69.000000	76.258	-167.1672
70.000000	76.241	-167.6877
71.000000	76.221	-168.2246
72.000000	76.193	-168.7545
73.000000	76.163	-169.2437
74.000000	76.139	-169.7060
75.000000	76.122	-170.1741
76.199997	76.107	-170.7453
77.500000	76.092	-171.3321
78.800003	76.077	-171.8890
80.000000	76.059	-172.3909
81.199997	76.037	-172.8798
82.500000	76.013	-173.4195
83.800003	75.981	-173.9813
85.000000	75.942	-174.4505
86.199997	75.904	-174.8374
87.500000	75.872	-175.2325
88.500000	75.851	-175.5744
90.000000	75.818	-176.1474
91.199997	75.790	-176.6195
92.500000	75.759	-177.1195
93.800003	75.725	-177.5666
95.000000	75.692	-177.9009
96.199997	75.661	-178.1755
97.500000	75.632	-178.4827
98.800003	75.598	-178.8556
100.000000	75.560	-179.2197
101.500000	75.507	-179.6240
103.000000	75.458	-179.9487
104.400002	75.416	179.8058
106.000000	75.372	179.5279
107.500000	75.334	179.1941
109.000000	75.294	178.7976
110.599998	75.250	178.4272
112.000000	75.208	178.2345
113.800003	75.134	178.1485
115.000000	75.056	178.1310
117.199997	74.853	178.0342
118.000000	74.775	177.9746
120.599998	74.664	177.5531
122.000000	74.711	177.0411
124.099998	74.815	176.5091
125.000000	74.853	176.5294
126.500000	74.888	176.8147
128.000000	74.879	177.1422
131.500000	74.744	176.3903
132.000000	74.712	176.0923
134.000000	74.572	175.0130
136.000000	74.472	174.5734
138.000000	74.442	174.5327
140.000000	74.426	174.4682
143.000000	74.324	174.4088
145.000000	74.207	174.6227
147.500000	74.066	175.1342
150.000000	74.006	175.8328
152.500000	74.013	176.8179
155.000000	73.999	177.9571
157.500000	73.962	178.5159
160.000000	73.993	177.8869
162.500000	74.103	176.7650
165.000000	74.219	176.1861
167.500000	74.257	175.8631
170.000000	74.179	175.1766
172.500000	74.048	174.3240
175.000000	73.939	173.6854
177.500000	73.860	173.3298
180.000000	73.794	173.1360
182.500000	73.736	173.0073
185.000000	73.681	172.9214
187.500000	73.626	172.8695
190.000000	73.570	172.8383
192.500000	73.516	172.8202
195.000000	73.466	172.8102
197.500000	73.419	172.8062
200.000000	73.374	172.8168
203.000000	73.321	172.8510
206.000000	73.270	172.8763
209.000000	73.221	172.8728
212.000000	73.174	172.8604
214.000000	73.144	172.8572
218.000000	73.082	172.8683
220.000000	73.048	172.8828
224.000000	72.978	172.9331
227.000000	72.923	172.9849
230.000000	72.868	173.0517
233.000000	72.814	173.1534
236.000000	72.758	173.2991
240.000000	72.683	173.5290
243.000000	72.632	173.7152
247.000000	72.581	174.0299
250.000000	72.559	174.3073
254.000000	72.544	174.6238
258.000000	72.535	174.7959
262.000000	72.517	174.8392
265.000000	72.495	174.8305
269.000000	72.458	174.8189
272.000000	72.428	174.8306
276.000000	72.384	174.8806
280.000000	72.337	174.9656
285.000000	72.276	175.1122
290.000000	72.217	175.2909
295.000000	72.160	175.4886
300.000000	72.104	175.7044
304.000000	72.062	175.8865
307.000000	72.033	176.0269
311.000000	71.996	176.2217
315.000000	71.959	176.4266
320.000000	71.913	176.6884
325.000000	71.867	176.9470
330.000000	71.822	177.2100
335.000000	71.780	177.4793
340.000000	71.740	177.7535
345.000000	71.702	178.0355
350.000000	71.664	178.3254
355.000000	71.628	178.6209
360.000000	71.593	178.9128
365.000000	71.560	179.1967
370.000000	71.528	179.4749
375.000000	71.496	179.7495
382.000000	71.453	-179.8634
387.000000	71.422	-179.5760
395.000000	71.373	-179.0985
400.000000	71.345	-178.7950
406.000000	71.314	-178.4215
412.000000	71.285	-178.0428
418.000000	71.255	-177.6680
425.000000	71.221	-177.2282
431.000000	71.193	-176.8538
437.000000	71.168	-176.4929
444.000000	71.141	-176.0796
450.000000	71.120	-175.7151
455.000000	71.103	-175.4002
462.000000	71.080	-174.9526
468.000000	71.060	-174.5741
475.000000	71.037	-174.1375
482.000000	71.013	-173.6949
487.000000	70.997	-173.3743
494.000000	70.976	-172.9244
500.000000	70.961	-172.5393
508.000000	70.943	-172.0252
515.000000	70.928	-171.5755
522.000000	70.914	-171.1299
530.000000	70.900	-170.6210
538.000000	70.885	-170.1080
545.000000	70.872	-169.6577
552.000000	70.858	-169.2056
560.000000	70.844	-168.6852
570.000000	70.830	-168.0326
580.000000	70.819	-167.3798
590.000000	70.811	-166.7236
600.000000	70.804	-166.0684
608.000000	70.799	-165.5419
615.000000	70.795	-165.0767
622.000000	70.791	-164.6046
630.000000	70.789	-164.0541
640.000000	70.788	-163.3462
650.000000	70.791	-162.6092
660.000000	70.806	-161.8392
670.000000	70.840	-161.0798
680.000000	70.895	-160.4635
690.000000	70.947	-160.1295
700.000000	70.959	-159.9845
710.000000	70.922	-159.7270
720.000000	70.862	-159.1978
730.000000	70.800	-158.4178
740.000000	70.749	-157.4034
750.000000	70.730	-156.1426
762.000000	70.785	-154.4727
775.000000	70.940	-153.0276
788.000000	71.102	-152.2615
800.000000	71.204	-151.8628
812.000000	71.268	-151.4621
825.000000	71.317	-150.9218
838.000000	71.362	-150.2828
850.000000	71.407	-149.6382
862.000000	71.456	-148.9645
875.000000	71.513	-148.2176
885.000000	71.560	-147.6414
900.000000	71.634	-146.7876
912.000000	71.698	-146.1170
925.000000	71.771	-145.4035
938.000000	71.848	-144.7036
950.000000	71.923	-144.0706
962.000000	72.000	-143.4503
975.000000	72.087	-142.7921
988.000000	72.177	-142.1510
1000.000000	72.261	-141.5800
1015.000000	72.370	-140.8963
1030.000000	72.482	-140.2403
1044.000000	72.587	-139.6501
1060.000000	72.711	-139.0032
1075.000000	72.830	-138.4279
1090.000000	72.950	-137.8878
1106.000000	73.079	-137.3531
1120.000000	73.193	-136.9177
1138.000000	73.341	-136.3951
1150.000000	73.439	-136.0678
1172.000000	73.618	-135.5133
1180.000000	73.683	-135.3290
1206.000000	73.896	-134.7981
1220.000000	74.009	-134.5487
1241.000000	74.177	-134.2153
1250.000000	74.248	-134.0879
1265.000000	74.363	-133.8972
1280.000000	74.475	-133.7347
1315.000000	74.727	-133.4431
1320.000000	74.761	-133.4072
1340.000000	74.898	-133.2708
1360.000000	75.031	-133.1452
1380.000000	75.159	-133.0328
1400.000000	75.283	-132.9335
1430.000000	75.464	-132.8055
1450.000000	75.582	-132.7294
1475.000000	75.726	-132.6349
1500.000000	75.867	-132.5387
1525.000000	76.006	-132.4469
1550.000000	76.144	-132.3636
1575.000000	76.281	-132.2892
1600.000000	76.417	-132.2240
1625.000000	76.552	-132.1685
1650.000000	76.686	-132.1240
1675.000000	76.821	-132.0954
1700.000000	76.955	-132.0857
1725.000000	77.089	-132.0925
1750.000000	77.223	-132.1139
1775.000000	77.356	-132.1516
1800.000000	77.489	-132.2106
1825.000000	77.622	-132.2930
1850.000000	77.753	-132.3983
1875.000000	77.884	-132.5251
1900.000000	78.014	-132.6732
1925.000000	78.142	-132.8452
1950.000000	78.270	-133.0443
1975.000000	78.396	-133.2708
2000.000000	78.520	-133.5235
2030.000000	78.667	-133.8607
2060.000000	78.811	-134.2364
2090.000000	78.951	-134.6512
2120.000000	79.087	-135.1047
2140.000000	79.175	-135.4280
2180.000000	79.344	-136.1221
2200.000000	79.426	-136.4910
2240.000000	79.580	-137.2704
2270.000000	79.688	-137.8904
2300.000000	79.790	-138.5388
2330.000000	79.885	-139.2126
2360.000000	79.972	-139.9086
2400.000000	80.076	-140.8642
2430.000000	80.144	-141.5950
2470.000000	80.222	-142.5776
2500.000000	80.270	-143.3129
2540.000000	80.320	-144.2790
2580.000000	80.356	-145.2113
2620.000000	80.379	-146.0871
2650.000000	80.391	-146.6946
2690.000000	80.403	-147.4315
2720.000000	80.415	-147.9386
2760.000000	80.436	-148.5936
2800.000000	80.464	-149.2843
2850.000000	80.495	-150.2620
2900.000000	80.506	-151.3485
2950.000000	80.489	-152.4514
3000.000000	80.447	-153.4872
3040.000000	80.400	-154.2411
3070.000000	80.360	-154.7594
3110.000000	80.302	-155.3904
3150.000000	80.241	-155.9597
3200.000000	80.161	-156.5962
3250.000000	80.079	-157.1597
3300.000000	79.997	-157.6608
3350.000000	79.915	-158.1106
3400.000000	79.835	-158.5175
3450.000000	79.755	-158.8867
3500.000000	79.676	-159.2252
3550.000000	79.598	-159.5393
3600.000000	79.520	-159.8307
3650.000000	79.442	-160.0965
3700.000000	79.365	-160.3345
3750.000000	79.289	-160.5464
3820.000000	79.188	-160.8115
3870.000000	79.121	-160.9935
3950.000000	79.020	-161.3075
4000.000000	78.959	-161.5326
4060.000000	78.888	-161.8381
4120.000000	78.815	-162.1837
4180.000000	78.740	-162.5696
4250.000000	78.648	-163.0670
4310.000000	78.562	-163.5282
4370.000000	78.468	-164.0161
4440.000000	78.348	-164.6105
4500.000000	78.236	-165.1324
4550.000000	78.134	-165.5694
4620.000000	77.980	-166.1716
4680.000000	77.837	-166.6655
4750.000000	77.658	-167.2007
4820.000000	77.468	-167.6809
4870.000000	77.327	-167.9859
4940.000000	77.121	-168.3550
5000.000000	76.939	-168.6143
5080.000000	76.689	-168.8735
5150.000000	76.465	-169.0120
5220.000000	76.238	-169.0592
5300.000000	75.976	-168.9940
5380.000000	75.716	-168.7989
5450.000000	75.491	-168.5224
5520.000000	75.271	-168.1500
5600.000000	75.028	-167.6113
5700.000000	74.743	-166.7781
5800.000000	74.481	-165.7852
5900.000000	74.250	-164.6615
6000.000000	74.053	-163.4568
6080.000000	73.919	-162.4753
6150.000000	73.816	-161.6142
6220.000000	73.725	-160.7407
6300.000000	73.633	-159.7082
6400.000000	73.542	-158.3452
6500.000000	73.487	-156.8948
6600.000000	73.478	-155.3773
6700.000000	73.528	-153.8463
6800.000000	73.642	-152.3811
6900.000000	73.824	-151.0751
7000.000000	74.078	-150.0257
7100.000000	74.400	-149.3441
7200.000000	74.786	-149.1650
7300.000000	75.223	-149.6480
7400.000000	75.688	-150.9682
7500.000000	76.146	-153.2887
7620.000000	76.617	-157.5285
7750.000000	76.938	-163.8216
7880.000000	76.970	-171.3379
8000.000000	76.701	-178.5371
8120.000000	76.154	174.8521
8250.000000	75.304	169.0505
8380.000000	74.270	164.9797
8500.000000	73.230	162.7184
8620.000000	72.165	161.6972
8750.000000	71.028	161.7275
8850.000000	70.183	162.3961
9000.000000	68.979	164.2303
9120.000000	68.077	166.2776
9250.000000	67.161	168.9632
9380.000000	66.308	172.0494
9500.000000	65.574	175.1960
9620.000000	64.890	178.5755
9750.000000	64.206	-177.5580
9880.000000	63.582	-173.5216
10000.000000	63.056	-169.6737
10150.000000	62.464	-164.7439
10300.000000	61.939	-159.7327
10440.000000	61.507	-154.9905
10600.000000	61.084	-149.4631
10750.000000	60.755	-144.1584
10900.000000	60.499	-138.7001
11060.000000	60.327	-132.6434
11200.000000	60.298	-127.0939
11380.000000	60.518	-119.6629
11500.000000	60.888	-114.7048
11720.000000	62.100	-106.6023
11800.000000	62.686	-104.3258
12060.000000	64.811	-100.8893
12200.000000	65.941	-101.7494
12410.000000	67.523	-105.7745
12500.000000	68.183	-108.1598
12650.000000	69.313	-112.7071
12800.000000	70.531	-117.9698
13150.000000	73.643	-135.6141
13200.000000	74.069	-139.1429
13400.000000	75.518	-156.6490
13600.000000	76.316	-179.0473
13800.000000	76.276	156.8497
14000.000000	75.445	135.4644
14300.000000	73.299	113.1660
14500.000000	71.773	103.8083
14750.000000	70.243	95.1673
15000.000000	69.286	87.4319
15250.000000	68.807	79.2561
15500.000000	68.685	69.8107
15750.000000	68.809	58.1286
16000.000000	69.022	43.1645
16250.000000	69.101	24.2698
16500.000000	68.820	1.8164
16750.000000	68.020	-22.6058
17000.000000	66.664	-46.9595
17250.000000	64.828	-69.9483
17500.000000	62.647	-91.5371
17750.000000	60.262	-112.6714
18000.000000	57.797	-134.8055
18250.000000	55.340	-159.6052
18500.000000	52.938	171.4207
18750.000000	50.572	137.6787
19000.000000	48.226	99.9998
19250.000000	46.042	60.3566
19500.000000	44.337	21.9098
19750.000000	43.320	-10.1776
