* Measurement data measured by REW V5.20.13
* Source: Frequency Response Averaged data
* Format: Averaged data produced from the rms magnitudes of Salnotes Zero Cal L, Salnotes Zero Cal L, Salnotes Zero Cal L, Salnotes Zero Cal L, Salnotes Zero Cal L
* Dated: Mar 23, 2024 7:51:13 PM
* REW Settings:
*  C-weighting compensation: Off
*  Target level: 75.0 dB
* Note: Averaged data produced from the rms magnitudes of Salnotes Zero Cal L, Salnotes Zero Cal L, Salnotes Zero Cal L, Salnotes Zero Cal L, Salnotes Zero Cal L
* Measurement: RMS Average L
* Smoothing: 1/12 octave
* Frequency Step: 1/48 octave
* Start Frequency: 20.000 Hz
*
* Freq(Hz)	SPL(dB)
20.000000	75.354
20.299999	75.490
20.600000	75.621
20.900000	75.747
21.200001	75.869
21.400000	75.948
21.799999	76.099
22.000000	76.171
22.400000	76.310
22.700001	76.410
23.000000	76.507
23.299999	76.601
23.600000	76.692
24.000000	76.808
24.299999	76.891
24.700001	76.997
25.000000	77.072
25.400000	77.169
25.799999	77.262
26.200001	77.351
26.500000	77.415
26.900000	77.497
27.200001	77.555
27.600000	77.630
28.000000	77.700
28.500000	77.784
29.000000	77.864
29.500000	77.939
30.000000	78.009
30.400000	78.060
30.700001	78.095
31.100000	78.141
31.500000	78.186
32.000000	78.243
32.500000	78.299
33.000000	78.353
33.500000	78.399
34.000000	78.439
34.500000	78.476
35.000000	78.511
35.500000	78.546
36.000000	78.579
36.500000	78.609
37.000000	78.634
37.500000	78.656
38.200001	78.684
38.700001	78.704
39.500000	78.733
40.000000	78.749
40.599998	78.767
41.200001	78.783
41.799999	78.797
42.500000	78.809
43.099998	78.815
43.700001	78.817
44.400002	78.813
45.000000	78.807
45.500000	78.800
46.200001	78.788
46.799999	78.778
47.500000	78.775
48.200001	78.779
48.700001	78.784
49.400002	78.786
50.000000	78.783
50.799999	78.776
51.500000	78.765
52.200001	78.750
53.000000	78.730
53.799999	78.710
54.500000	78.695
55.200001	78.680
56.000000	78.664
57.000000	78.644
58.000000	78.625
59.000000	78.604
60.000000	78.583
60.799999	78.566
61.500000	78.550
62.200001	78.532
63.000000	78.509
64.000000	78.480
65.000000	78.450
66.000000	78.419
67.000000	78.388
68.000000	78.359
69.000000	78.330
70.000000	78.300
71.000000	78.269
72.000000	78.236
73.000000	78.203
74.000000	78.169
75.000000	78.134
76.199997	78.094
77.500000	78.050
78.800003	78.005
80.000000	77.961
81.199997	77.916
82.500000	77.868
83.800003	77.822
85.000000	77.781
86.199997	77.741
87.500000	77.699
88.500000	77.668
90.000000	77.623
91.199997	77.585
92.500000	77.538
93.800003	77.485
95.000000	77.434
96.199997	77.386
97.500000	77.342
98.800003	77.304
100.000000	77.271
101.500000	77.233
103.000000	77.197
104.400002	77.162
106.000000	77.118
107.500000	77.075
109.000000	77.035
110.599998	76.996
112.000000	76.959
113.800003	76.905
115.000000	76.869
117.199997	76.804
118.000000	76.779
120.599998	76.700
122.000000	76.660
124.099998	76.604
125.000000	76.582
126.500000	76.547
128.000000	76.512
131.500000	76.421
132.000000	76.407
134.000000	76.355
136.000000	76.312
138.000000	76.275
140.000000	76.230
143.000000	76.134
145.000000	76.066
147.500000	76.001
150.000000	75.973
152.500000	75.947
155.000000	75.895
157.500000	75.841
160.000000	75.798
162.500000	75.756
165.000000	75.720
167.500000	75.696
170.000000	75.668
172.500000	75.632
175.000000	75.596
177.500000	75.567
180.000000	75.543
182.500000	75.516
185.000000	75.486
187.500000	75.460
190.000000	75.444
192.500000	75.429
195.000000	75.406
197.500000	75.372
200.000000	75.336
203.000000	75.298
206.000000	75.263
209.000000	75.229
212.000000	75.197
214.000000	75.178
218.000000	75.139
220.000000	75.118
224.000000	75.067
227.000000	75.023
230.000000	74.987
233.000000	74.967
236.000000	74.955
240.000000	74.934
243.000000	74.915
247.000000	74.890
250.000000	74.870
254.000000	74.844
258.000000	74.817
262.000000	74.790
265.000000	74.770
269.000000	74.744
272.000000	74.725
276.000000	74.701
280.000000	74.677
285.000000	74.650
290.000000	74.624
295.000000	74.599
300.000000	74.576
304.000000	74.559
307.000000	74.546
311.000000	74.531
315.000000	74.515
320.000000	74.496
325.000000	74.478
330.000000	74.460
335.000000	74.442
340.000000	74.427
345.000000	74.412
350.000000	74.400
355.000000	74.389
360.000000	74.380
365.000000	74.372
370.000000	74.366
375.000000	74.360
382.000000	74.354
387.000000	74.350
395.000000	74.343
400.000000	74.338
406.000000	74.332
412.000000	74.327
418.000000	74.322
425.000000	74.317
431.000000	74.313
437.000000	74.311
444.000000	74.308
450.000000	74.306
455.000000	74.304
462.000000	74.303
468.000000	74.302
475.000000	74.301
482.000000	74.301
487.000000	74.300
494.000000	74.299
500.000000	74.299
508.000000	74.298
515.000000	74.299
522.000000	74.299
530.000000	74.300
538.000000	74.301
545.000000	74.303
552.000000	74.306
560.000000	74.309
570.000000	74.313
580.000000	74.319
590.000000	74.326
600.000000	74.334
608.000000	74.341
615.000000	74.348
622.000000	74.355
630.000000	74.365
640.000000	74.377
650.000000	74.391
660.000000	74.405
670.000000	74.421
680.000000	74.439
690.000000	74.459
700.000000	74.480
710.000000	74.503
720.000000	74.527
730.000000	74.552
740.000000	74.578
750.000000	74.607
762.000000	74.644
775.000000	74.687
788.000000	74.733
800.000000	74.779
812.000000	74.828
825.000000	74.884
838.000000	74.944
850.000000	75.002
862.000000	75.063
875.000000	75.132
885.000000	75.187
900.000000	75.273
912.000000	75.344
925.000000	75.425
938.000000	75.509
950.000000	75.588
962.000000	75.669
975.000000	75.759
988.000000	75.850
1000.000000	75.935
1015.000000	76.042
1030.000000	76.149
1044.000000	76.245
1060.000000	76.347
1075.000000	76.434
1090.000000	76.526
1106.000000	76.646
1120.000000	76.776
1138.000000	76.954
1150.000000	77.066
1172.000000	77.247
1180.000000	77.305
1206.000000	77.482
1220.000000	77.572
1241.000000	77.703
1250.000000	77.758
1265.000000	77.848
1280.000000	77.937
1315.000000	78.139
1320.000000	78.167
1340.000000	78.278
1360.000000	78.387
1380.000000	78.494
1400.000000	78.599
1430.000000	78.753
1450.000000	78.855
1475.000000	78.980
1500.000000	79.103
1525.000000	79.226
1550.000000	79.347
1575.000000	79.469
1600.000000	79.589
1625.000000	79.710
1650.000000	79.830
1675.000000	79.950
1700.000000	80.070
1725.000000	80.190
1750.000000	80.311
1775.000000	80.431
1800.000000	80.552
1825.000000	80.673
1850.000000	80.794
1875.000000	80.914
1900.000000	81.035
1925.000000	81.156
1950.000000	81.276
1975.000000	81.396
2000.000000	81.516
2030.000000	81.659
2060.000000	81.800
2090.000000	81.941
2120.000000	82.080
2140.000000	82.172
2180.000000	82.353
2200.000000	82.442
2240.000000	82.617
2270.000000	82.745
2300.000000	82.869
2330.000000	82.991
2360.000000	83.108
2400.000000	83.259
2430.000000	83.367
2470.000000	83.504
2500.000000	83.600
2540.000000	83.721
2580.000000	83.832
2620.000000	83.932
2650.000000	84.001
2690.000000	84.085
2720.000000	84.142
2760.000000	84.215
2800.000000	84.285
2850.000000	84.375
2900.000000	84.469
2950.000000	84.564
3000.000000	84.650
3040.000000	84.706
3070.000000	84.739
3110.000000	84.771
3150.000000	84.790
3200.000000	84.800
3250.000000	84.798
3300.000000	84.787
3350.000000	84.769
3400.000000	84.746
3450.000000	84.719
3500.000000	84.687
3550.000000	84.653
3600.000000	84.615
3650.000000	84.575
3700.000000	84.532
3750.000000	84.485
3820.000000	84.410
3870.000000	84.347
3950.000000	84.234
4000.000000	84.157
4060.000000	84.060
4120.000000	83.959
4180.000000	83.857
4250.000000	83.738
4310.000000	83.638
4370.000000	83.538
4440.000000	83.419
4500.000000	83.312
4550.000000	83.218
4620.000000	83.077
4680.000000	82.947
4750.000000	82.784
4820.000000	82.608
4870.000000	82.475
4940.000000	82.279
5000.000000	82.104
5080.000000	81.860
5150.000000	81.641
5220.000000	81.417
5300.000000	81.160
5380.000000	80.902
5450.000000	80.677
5520.000000	80.453
5600.000000	80.199
5700.000000	79.892
5800.000000	79.610
5900.000000	79.378
6000.000000	79.205
6080.000000	79.092
6150.000000	78.996
6220.000000	78.900
6300.000000	78.792
6400.000000	78.670
6500.000000	78.572
6600.000000	78.508
6700.000000	78.489
6800.000000	78.524
6900.000000	78.614
7000.000000	78.753
7100.000000	78.938
7200.000000	79.166
7300.000000	79.428
7400.000000	79.712
7500.000000	80.001
7620.000000	80.334
7750.000000	80.654
7880.000000	80.912
8000.000000	81.078
8120.000000	81.149
8250.000000	81.083
8380.000000	80.841
8500.000000	80.453
8620.000000	79.918
8750.000000	79.198
8850.000000	78.570
9000.000000	77.553
9120.000000	76.714
9250.000000	75.813
9380.000000	74.949
9500.000000	74.198
9620.000000	73.499
9750.000000	72.806
9880.000000	72.181
10000.000000	71.665
10150.000000	71.104
10300.000000	70.635
10440.000000	70.289
10600.000000	70.031
10750.000000	69.979
10900.000000	70.193
11060.000000	70.813
11200.000000	71.716
11380.000000	73.273
11500.000000	74.445
11720.000000	76.617
11800.000000	77.373
12060.000000	79.610
12200.000000	80.615
12410.000000	81.707
12500.000000	81.973
12650.000000	82.097
12800.000000	81.799
13150.000000	79.672
13200.000000	79.251
13400.000000	77.436
13600.000000	75.591
13800.000000	73.890
14000.000000	72.421
14300.000000	70.676
14500.000000	69.783
14750.000000	68.919
15000.000000	68.288
15250.000000	67.845
15500.000000	67.539
15750.000000	67.321
16000.000000	67.143
16250.000000	66.965
16500.000000	66.756
16750.000000	66.504
17000.000000	66.213
17250.000000	65.897
17500.000000	65.580
17750.000000	65.275
18000.000000	64.968
18250.000000	64.610
18500.000000	64.159
18750.000000	63.659
19000.000000	63.194
19250.000000	62.740
19500.000000	62.201
19750.000000	61.586
