* Measurement data measured by REW V5.20.13
* Source: Frequency Response Averaged data
* Format: Averaged data produced from the rms magnitudes of Symph Crimson L Black Tips, Symph Crimson L Black Tips, Symph Crimson L Black Tips, Symph Crimson L Black Tips, Symph Crimson L Black Tips
* Dated: Mar 4, 2024 5:24:55 PM
* REW Settings:
*  C-weighting compensation: Off
*  Target level: 75.0 dB
* Note: Averaged data produced from the rms magnitudes of Symph Crimson L Black Tips, Symph Crimson L Black Tips, Symph Crimson L Black Tips, Symph Crimson L Black Tips, Symph Crimson L Black Tips
* Measurement: RMS Average L Black Tips
* Smoothing: 1/12 octave
* Frequency Step: 1/48 octave
* Start Frequency: 20.000 Hz
*
* Freq(Hz)	SPL(dB)
20.000000	68.512
20.299999	68.742
20.600000	68.959
20.900000	69.168
21.200001	69.370
21.400000	69.502
21.799999	69.757
22.000000	69.880
22.400000	70.115
22.700001	70.281
23.000000	70.442
23.299999	70.601
23.600000	70.759
24.000000	70.972
24.299999	71.130
24.700001	71.332
25.000000	71.472
25.400000	71.639
25.799999	71.789
26.200001	71.934
26.500000	72.044
26.900000	72.196
27.200001	72.312
27.600000	72.461
28.000000	72.599
28.500000	72.752
29.000000	72.894
29.500000	73.032
30.000000	73.169
30.400000	73.276
30.700001	73.353
31.100000	73.450
31.500000	73.540
32.000000	73.642
32.500000	73.738
33.000000	73.831
33.500000	73.922
34.000000	74.006
34.500000	74.078
35.000000	74.139
35.500000	74.198
36.000000	74.267
36.500000	74.347
37.000000	74.432
37.500000	74.510
38.200001	74.599
38.700001	74.647
39.500000	74.705
40.000000	74.733
40.599998	74.767
41.200001	74.808
41.799999	74.862
42.500000	74.933
43.099998	74.988
43.700001	75.029
44.400002	75.056
45.000000	75.068
45.500000	75.073
46.200001	75.079
46.799999	75.091
47.500000	75.117
48.200001	75.150
48.700001	75.172
49.400002	75.197
50.000000	75.214
50.799999	75.230
51.500000	75.238
52.200001	75.243
53.000000	75.252
53.799999	75.263
54.500000	75.268
55.200001	75.268
56.000000	75.264
57.000000	75.255
58.000000	75.248
59.000000	75.245
60.000000	75.229
60.799999	75.202
61.500000	75.174
62.200001	75.145
63.000000	75.110
64.000000	75.068
65.000000	75.031
66.000000	74.996
67.000000	74.963
68.000000	74.940
69.000000	74.923
70.000000	74.895
71.000000	74.846
72.000000	74.779
73.000000	74.712
74.000000	74.660
75.000000	74.621
76.199997	74.578
77.500000	74.540
78.800003	74.522
80.000000	74.500
81.199997	74.454
82.500000	74.399
83.800003	74.371
85.000000	74.381
86.199997	74.408
87.500000	74.402
88.500000	74.342
90.000000	74.179
91.199997	74.032
92.500000	73.888
93.800003	73.778
95.000000	73.711
96.199997	73.672
97.500000	73.640
98.800003	73.601
100.000000	73.549
101.500000	73.466
103.000000	73.375
104.400002	73.301
106.000000	73.240
107.500000	73.191
109.000000	73.137
110.599998	73.071
112.000000	73.006
113.800003	72.924
115.000000	72.878
117.199997	72.823
118.000000	72.807
120.599998	72.720
122.000000	72.652
124.099998	72.534
125.000000	72.481
126.500000	72.394
128.000000	72.317
131.500000	72.168
132.000000	72.148
134.000000	72.070
136.000000	72.015
138.000000	71.981
140.000000	71.937
143.000000	71.818
145.000000	71.724
147.500000	71.634
150.000000	71.588
152.500000	71.568
155.000000	71.549
157.500000	71.512
160.000000	71.445
162.500000	71.405
165.000000	71.493
167.500000	71.641
170.000000	71.630
172.500000	71.429
175.000000	71.190
177.500000	70.992
180.000000	70.842
182.500000	70.724
185.000000	70.632
187.500000	70.568
190.000000	70.527
192.500000	70.495
195.000000	70.460
197.500000	70.424
200.000000	70.391
203.000000	70.342
206.000000	70.282
209.000000	70.226
212.000000	70.177
214.000000	70.146
218.000000	70.077
220.000000	70.044
224.000000	69.986
227.000000	69.948
230.000000	69.913
233.000000	69.882
236.000000	69.853
240.000000	69.816
243.000000	69.785
247.000000	69.744
250.000000	69.717
254.000000	69.685
258.000000	69.658
262.000000	69.632
265.000000	69.614
269.000000	69.591
272.000000	69.575
276.000000	69.556
280.000000	69.540
285.000000	69.523
290.000000	69.511
295.000000	69.502
300.000000	69.491
304.000000	69.482
307.000000	69.477
311.000000	69.473
315.000000	69.471
320.000000	69.469
325.000000	69.469
330.000000	69.470
335.000000	69.472
340.000000	69.476
345.000000	69.482
350.000000	69.488
355.000000	69.495
360.000000	69.503
365.000000	69.511
370.000000	69.519
375.000000	69.528
382.000000	69.542
387.000000	69.552
395.000000	69.568
400.000000	69.579
406.000000	69.591
412.000000	69.601
418.000000	69.610
425.000000	69.627
431.000000	69.644
437.000000	69.661
444.000000	69.677
450.000000	69.690
455.000000	69.700
462.000000	69.712
468.000000	69.722
475.000000	69.732
482.000000	69.742
487.000000	69.748
494.000000	69.757
500.000000	69.763
508.000000	69.771
515.000000	69.776
522.000000	69.780
530.000000	69.785
538.000000	69.787
545.000000	69.787
552.000000	69.784
560.000000	69.781
570.000000	69.776
580.000000	69.770
590.000000	69.764
600.000000	69.757
608.000000	69.750
615.000000	69.743
622.000000	69.737
630.000000	69.729
640.000000	69.719
650.000000	69.709
660.000000	69.698
670.000000	69.688
680.000000	69.678
690.000000	69.670
700.000000	69.663
710.000000	69.656
720.000000	69.651
730.000000	69.646
740.000000	69.643
750.000000	69.640
762.000000	69.639
775.000000	69.641
788.000000	69.647
800.000000	69.656
812.000000	69.669
825.000000	69.687
838.000000	69.709
850.000000	69.732
862.000000	69.758
875.000000	69.790
885.000000	69.817
900.000000	69.863
912.000000	69.903
925.000000	69.950
938.000000	70.001
950.000000	70.051
962.000000	70.104
975.000000	70.165
988.000000	70.230
1000.000000	70.292
1015.000000	70.373
1030.000000	70.455
1044.000000	70.535
1060.000000	70.629
1075.000000	70.718
1090.000000	70.809
1106.000000	70.906
1120.000000	70.991
1138.000000	71.100
1150.000000	71.173
1172.000000	71.306
1180.000000	71.354
1206.000000	71.507
1220.000000	71.589
1241.000000	71.709
1250.000000	71.760
1265.000000	71.844
1280.000000	71.926
1315.000000	72.116
1320.000000	72.142
1340.000000	72.247
1360.000000	72.351
1380.000000	72.452
1400.000000	72.553
1430.000000	72.704
1450.000000	72.803
1475.000000	72.928
1500.000000	73.053
1525.000000	73.178
1550.000000	73.303
1575.000000	73.429
1600.000000	73.556
1625.000000	73.683
1650.000000	73.811
1675.000000	73.941
1700.000000	74.072
1725.000000	74.205
1750.000000	74.338
1775.000000	74.471
1800.000000	74.603
1825.000000	74.736
1850.000000	74.870
1875.000000	75.005
1900.000000	75.142
1925.000000	75.282
1950.000000	75.426
1975.000000	75.575
2000.000000	75.727
2030.000000	75.912
2060.000000	76.094
2090.000000	76.267
2120.000000	76.428
2140.000000	76.529
2180.000000	76.715
2200.000000	76.801
2240.000000	76.958
2270.000000	77.064
2300.000000	77.160
2330.000000	77.246
2360.000000	77.322
2400.000000	77.407
2430.000000	77.459
2470.000000	77.513
2500.000000	77.541
2540.000000	77.562
2580.000000	77.568
2620.000000	77.557
2650.000000	77.540
2690.000000	77.507
2720.000000	77.476
2760.000000	77.428
2800.000000	77.375
2850.000000	77.307
2900.000000	77.241
2950.000000	77.177
3000.000000	77.114
3040.000000	77.063
3070.000000	77.023
3110.000000	76.970
3150.000000	76.916
3200.000000	76.849
3250.000000	76.783
3300.000000	76.717
3350.000000	76.649
3400.000000	76.576
3450.000000	76.492
3500.000000	76.393
3550.000000	76.273
3600.000000	76.126
3650.000000	75.949
3700.000000	75.740
3750.000000	75.497
3820.000000	75.103
3870.000000	74.785
3950.000000	74.225
4000.000000	73.853
4060.000000	73.402
4120.000000	72.975
4180.000000	72.613
4250.000000	72.336
4310.000000	72.276
4370.000000	72.404
4440.000000	72.779
4500.000000	73.241
4550.000000	73.678
4620.000000	74.291
4680.000000	74.759
4750.000000	75.188
4820.000000	75.461
4870.000000	75.559
4940.000000	75.571
5000.000000	75.483
5080.000000	75.261
5150.000000	75.003
5220.000000	74.715
5300.000000	74.378
5380.000000	74.057
5450.000000	73.803
5520.000000	73.582
5600.000000	73.377
5700.000000	73.199
5800.000000	73.109
5900.000000	73.108
6000.000000	73.189
6080.000000	73.306
6150.000000	73.437
6220.000000	73.586
6300.000000	73.763
6400.000000	73.967
6500.000000	74.110
6600.000000	74.152
6700.000000	74.063
6800.000000	73.839
6900.000000	73.501
7000.000000	73.106
7100.000000	72.745
7200.000000	72.523
7300.000000	72.525
7400.000000	72.771
7500.000000	73.203
7620.000000	73.825
7750.000000	74.446
7880.000000	74.893
8000.000000	75.110
8120.000000	75.141
8250.000000	74.980
8380.000000	74.640
8500.000000	74.178
8620.000000	73.582
8750.000000	72.797
8850.000000	72.112
9000.000000	71.005
9120.000000	70.113
9250.000000	69.206
9380.000000	68.411
9500.000000	67.797
9620.000000	67.305
9750.000000	66.906
9880.000000	66.643
10000.000000	66.513
10150.000000	66.484
10300.000000	66.571
10440.000000	66.728
10600.000000	66.959
10750.000000	67.190
10900.000000	67.405
11060.000000	67.596
11200.000000	67.732
11380.000000	67.874
11500.000000	67.949
11720.000000	68.037
11800.000000	68.061
12060.000000	68.184
12200.000000	68.331
12410.000000	68.730
12500.000000	68.982
12650.000000	69.514
12800.000000	70.175
13150.000000	71.961
13200.000000	72.211
13400.000000	73.132
13600.000000	73.905
13800.000000	74.524
14000.000000	74.954
14300.000000	75.081
14500.000000	74.771
14750.000000	74.075
15000.000000	73.312
15250.000000	72.579
15500.000000	71.676
15750.000000	70.560
16000.000000	69.679
16250.000000	69.419
16500.000000	69.532
16750.000000	69.601
17000.000000	69.450
17250.000000	69.098
17500.000000	68.633
17750.000000	68.147
18000.000000	67.706
18250.000000	67.335
18500.000000	67.032
18750.000000	66.770
19000.000000	66.501
19250.000000	66.161
19500.000000	65.699
19750.000000	65.157
