* Measurement data measured by REW V5.20.13
* Source: Frequency Response Averaged data
* Format: Averaged data produced from the rms magnitudes of Symph Crimson R Black Tips, Symph Crimson R Black Tips, Symph Crimson R Black Tips, Symph Crimson R Black Tips, Symph Crimson R Black Tips
* Dated: Mar 4, 2024 5:27:58 PM
* REW Settings:
*  C-weighting compensation: Off
*  Target level: 75.0 dB
* Note: Averaged data produced from the rms magnitudes of Symph Crimson R Black Tips, Symph Crimson R Black Tips, Symph Crimson R Black Tips, Symph Crimson R Black Tips, Symph Crimson R Black Tips
* Measurement: RMS Average R Black Tips
* Smoothing: 1/12 octave
* Frequency Step: 1/48 octave
* Start Frequency: 20.000 Hz
*
* Freq(Hz)	SPL(dB)
20.000000	69.329
20.299999	69.541
20.600000	69.747
20.900000	69.948
21.200001	70.143
21.400000	70.271
21.799999	70.520
22.000000	70.640
22.400000	70.873
22.700001	71.039
23.000000	71.198
23.299999	71.350
23.600000	71.498
24.000000	71.690
24.299999	71.832
24.700001	72.020
25.000000	72.159
25.400000	72.340
25.799999	72.512
26.200001	72.670
26.500000	72.780
26.900000	72.918
27.200001	73.017
27.600000	73.148
28.000000	73.280
28.500000	73.443
29.000000	73.596
29.500000	73.734
30.000000	73.861
30.400000	73.959
30.700001	74.032
31.100000	74.130
31.500000	74.226
32.000000	74.339
32.500000	74.441
33.000000	74.532
33.500000	74.616
34.000000	74.698
34.500000	74.779
35.000000	74.859
35.500000	74.938
36.000000	75.013
36.500000	75.083
37.000000	75.147
37.500000	75.207
38.200001	75.284
38.700001	75.336
39.500000	75.416
40.000000	75.463
40.599998	75.517
41.200001	75.569
41.799999	75.618
42.500000	75.669
43.099998	75.705
43.700001	75.733
44.400002	75.760
45.000000	75.782
45.500000	75.800
46.200001	75.825
46.799999	75.845
47.500000	75.866
48.200001	75.888
48.700001	75.905
49.400002	75.926
50.000000	75.941
50.799999	75.952
51.500000	75.957
52.200001	75.960
53.000000	75.959
53.799999	75.956
54.500000	75.954
55.200001	75.954
56.000000	75.953
57.000000	75.945
58.000000	75.934
59.000000	75.911
60.000000	75.867
60.799999	75.835
61.500000	75.821
62.200001	75.814
63.000000	75.805
64.000000	75.789
65.000000	75.774
66.000000	75.760
67.000000	75.738
68.000000	75.701
69.000000	75.651
70.000000	75.601
71.000000	75.559
72.000000	75.529
73.000000	75.507
74.000000	75.485
75.000000	75.458
76.199997	75.410
77.500000	75.341
78.800003	75.270
80.000000	75.210
81.199997	75.156
82.500000	75.102
83.800003	75.050
85.000000	74.999
86.199997	74.945
87.500000	74.881
88.500000	74.833
90.000000	74.762
91.199997	74.707
92.500000	74.650
93.800003	74.593
95.000000	74.541
96.199997	74.487
97.500000	74.428
98.800003	74.367
100.000000	74.311
101.500000	74.242
103.000000	74.171
104.400002	74.103
106.000000	74.027
107.500000	73.958
109.000000	73.891
110.599998	73.824
112.000000	73.768
113.800003	73.698
115.000000	73.652
117.199997	73.567
118.000000	73.532
120.599998	73.405
122.000000	73.338
124.099998	73.250
125.000000	73.214
126.500000	73.153
128.000000	73.089
131.500000	72.945
132.000000	72.925
134.000000	72.847
136.000000	72.769
138.000000	72.690
140.000000	72.615
143.000000	72.512
145.000000	72.453
147.500000	72.389
150.000000	72.331
152.500000	72.296
155.000000	72.298
157.500000	72.331
160.000000	72.348
162.500000	72.298
165.000000	72.176
167.500000	72.014
170.000000	71.859
172.500000	71.753
175.000000	71.680
177.500000	71.615
180.000000	71.557
182.500000	71.508
185.000000	71.463
187.500000	71.418
190.000000	71.370
192.500000	71.321
195.000000	71.277
197.500000	71.242
200.000000	71.208
203.000000	71.161
206.000000	71.109
209.000000	71.056
212.000000	71.001
214.000000	70.964
218.000000	70.898
220.000000	70.869
224.000000	70.817
227.000000	70.781
230.000000	70.746
233.000000	70.710
236.000000	70.674
240.000000	70.633
243.000000	70.609
247.000000	70.583
250.000000	70.563
254.000000	70.537
258.000000	70.513
262.000000	70.490
265.000000	70.474
269.000000	70.454
272.000000	70.440
276.000000	70.422
280.000000	70.406
285.000000	70.389
290.000000	70.375
295.000000	70.361
300.000000	70.350
304.000000	70.348
307.000000	70.348
311.000000	70.348
315.000000	70.348
320.000000	70.348
325.000000	70.348
330.000000	70.349
335.000000	70.352
340.000000	70.356
345.000000	70.361
350.000000	70.368
355.000000	70.376
360.000000	70.384
365.000000	70.394
370.000000	70.403
375.000000	70.413
382.000000	70.429
387.000000	70.440
395.000000	70.460
400.000000	70.473
406.000000	70.489
412.000000	70.507
418.000000	70.525
425.000000	70.545
431.000000	70.561
437.000000	70.577
444.000000	70.595
450.000000	70.609
455.000000	70.621
462.000000	70.637
468.000000	70.650
475.000000	70.664
482.000000	70.675
487.000000	70.682
494.000000	70.690
500.000000	70.696
508.000000	70.704
515.000000	70.711
522.000000	70.717
530.000000	70.723
538.000000	70.727
545.000000	70.731
552.000000	70.735
560.000000	70.738
570.000000	70.737
580.000000	70.734
590.000000	70.730
600.000000	70.723
608.000000	70.716
615.000000	70.708
622.000000	70.699
630.000000	70.690
640.000000	70.678
650.000000	70.667
660.000000	70.655
670.000000	70.645
680.000000	70.634
690.000000	70.624
700.000000	70.615
710.000000	70.607
720.000000	70.599
730.000000	70.593
740.000000	70.589
750.000000	70.586
762.000000	70.585
775.000000	70.587
788.000000	70.592
800.000000	70.600
812.000000	70.611
825.000000	70.626
838.000000	70.646
850.000000	70.668
862.000000	70.693
875.000000	70.724
885.000000	70.751
900.000000	70.796
912.000000	70.837
925.000000	70.885
938.000000	70.936
950.000000	70.987
962.000000	71.041
975.000000	71.102
988.000000	71.166
1000.000000	71.229
1015.000000	71.310
1030.000000	71.391
1044.000000	71.469
1060.000000	71.559
1075.000000	71.647
1090.000000	71.737
1106.000000	71.835
1120.000000	71.921
1138.000000	72.032
1150.000000	72.105
1172.000000	72.239
1180.000000	72.287
1206.000000	72.442
1220.000000	72.525
1241.000000	72.649
1250.000000	72.701
1265.000000	72.787
1280.000000	72.871
1315.000000	73.064
1320.000000	73.091
1340.000000	73.200
1360.000000	73.309
1380.000000	73.416
1400.000000	73.523
1430.000000	73.682
1450.000000	73.787
1475.000000	73.920
1500.000000	74.054
1525.000000	74.189
1550.000000	74.324
1575.000000	74.461
1600.000000	74.598
1625.000000	74.737
1650.000000	74.878
1675.000000	75.019
1700.000000	75.163
1725.000000	75.309
1750.000000	75.457
1775.000000	75.607
1800.000000	75.758
1825.000000	75.908
1850.000000	76.056
1875.000000	76.203
1900.000000	76.347
1925.000000	76.490
1950.000000	76.630
1975.000000	76.767
2000.000000	76.902
2030.000000	77.060
2060.000000	77.213
2090.000000	77.360
2120.000000	77.501
2140.000000	77.591
2180.000000	77.761
2200.000000	77.840
2240.000000	77.987
2270.000000	78.086
2300.000000	78.175
2330.000000	78.254
2360.000000	78.322
2400.000000	78.398
2430.000000	78.442
2470.000000	78.486
2500.000000	78.508
2540.000000	78.523
2580.000000	78.524
2620.000000	78.512
2650.000000	78.497
2690.000000	78.470
2720.000000	78.447
2760.000000	78.412
2800.000000	78.377
2850.000000	78.335
2900.000000	78.298
2950.000000	78.266
3000.000000	78.237
3040.000000	78.215
3070.000000	78.199
3110.000000	78.178
3150.000000	78.156
3200.000000	78.125
3250.000000	78.087
3300.000000	78.041
3350.000000	77.982
3400.000000	77.906
3450.000000	77.807
3500.000000	77.680
3550.000000	77.519
3600.000000	77.322
3650.000000	77.087
3700.000000	76.812
3750.000000	76.497
3820.000000	75.993
3870.000000	75.591
3950.000000	74.899
4000.000000	74.452
4060.000000	73.928
4120.000000	73.455
4180.000000	73.079
4250.000000	72.833
4310.000000	72.835
4370.000000	73.050
4440.000000	73.535
4500.000000	74.086
4550.000000	74.585
4620.000000	75.266
4680.000000	75.769
4750.000000	76.209
4820.000000	76.466
4870.000000	76.537
4940.000000	76.496
5000.000000	76.354
5080.000000	76.058
5150.000000	75.741
5220.000000	75.404
5300.000000	75.027
5380.000000	74.683
5450.000000	74.421
5520.000000	74.201
5600.000000	74.007
5700.000000	73.854
5800.000000	73.799
5900.000000	73.839
6000.000000	73.963
6080.000000	74.112
6150.000000	74.269
6220.000000	74.439
6300.000000	74.636
6400.000000	74.853
6500.000000	75.000
6600.000000	75.041
6700.000000	74.954
6800.000000	74.737
6900.000000	74.412
7000.000000	74.035
7100.000000	73.710
7200.000000	73.575
7300.000000	73.737
7400.000000	74.187
7500.000000	74.827
7620.000000	75.657
7750.000000	76.429
7880.000000	76.918
8000.000000	77.052
8120.000000	76.868
8250.000000	76.333
8380.000000	75.503
8500.000000	74.538
8620.000000	73.456
8750.000000	72.253
8850.000000	71.365
9000.000000	70.146
9120.000000	69.306
9250.000000	68.563
9380.000000	68.007
9500.000000	67.653
9620.000000	67.435
9750.000000	67.328
9880.000000	67.329
10000.000000	67.404
10150.000000	67.570
10300.000000	67.793
10440.000000	68.028
10600.000000	68.284
10750.000000	68.465
10900.000000	68.556
11060.000000	68.545
11200.000000	68.460
11380.000000	68.295
11500.000000	68.180
11720.000000	68.029
11800.000000	68.010
12060.000000	68.175
12200.000000	68.452
12410.000000	69.156
12500.000000	69.559
12650.000000	70.329
12800.000000	71.160
13150.000000	72.912
13200.000000	73.121
13400.000000	73.863
13600.000000	74.463
13800.000000	74.847
14000.000000	74.899
14300.000000	74.269
14500.000000	73.524
14750.000000	72.573
15000.000000	71.808
15250.000000	71.083
15500.000000	70.247
15750.000000	69.604
16000.000000	69.603
16250.000000	70.229
16500.000000	71.189
16750.000000	72.296
17000.000000	73.408
17250.000000	74.368
17500.000000	75.084
17750.000000	75.575
18000.000000	75.902
18250.000000	76.078
18500.000000	76.049
18750.000000	75.742
19000.000000	75.101
19250.000000	74.101
19500.000000	72.773
19750.000000	71.291
