* Measurement data measured by REW V5.20.13
* Source: Frequency Response Averaged data
* Format: Averaged data produced from the rms magnitudes of Tanchjim Ola Cal L, Tanchjim Ola Cal L, Tanchjim Ola Cal L, Tanchjim Ola Cal L, Tanchjim Ola Cal L
* Dated: Mar 23, 2024 7:58:37 PM
* REW Settings:
*  C-weighting compensation: Off
*  Target level: 75.0 dB
* Note: Averaged data produced from the rms magnitudes of Tanchjim Ola Cal L, Tanchjim Ola Cal L, Tanchjim Ola Cal L, Tanchjim Ola Cal L, Tanchjim Ola Cal L
* Measurement: RMS Average L
* Smoothing: 1/12 octave
* Frequency Step: 1/48 octave
* Start Frequency: 20.000 Hz
*
* Freq(Hz)	SPL(dB)
20.000000	58.536
20.299999	58.784
20.600000	59.030
20.900000	59.273
21.200001	59.513
21.400000	59.670
21.799999	59.975
22.000000	60.122
22.400000	60.406
22.700001	60.609
23.000000	60.805
23.299999	60.995
23.600000	61.180
24.000000	61.423
24.299999	61.604
24.700001	61.844
25.000000	62.022
25.400000	62.253
25.799999	62.472
26.200001	62.678
26.500000	62.824
26.900000	63.012
27.200001	63.151
27.600000	63.337
28.000000	63.528
28.500000	63.769
29.000000	64.002
29.500000	64.214
30.000000	64.402
30.400000	64.544
30.700001	64.653
31.100000	64.808
31.500000	64.975
32.000000	65.185
32.500000	65.373
33.000000	65.527
33.500000	65.654
34.000000	65.773
34.500000	65.898
35.000000	66.030
35.500000	66.166
36.000000	66.302
36.500000	66.434
37.000000	66.561
37.500000	66.679
38.200001	66.834
38.700001	66.942
39.500000	67.115
40.000000	67.221
40.599998	67.344
41.200001	67.464
41.799999	67.579
42.500000	67.707
43.099998	67.813
43.700001	67.917
44.400002	68.030
45.000000	68.119
45.500000	68.190
46.200001	68.289
46.799999	68.372
47.500000	68.462
48.200001	68.547
48.700001	68.608
49.400002	68.695
50.000000	68.771
50.799999	68.870
51.500000	68.947
52.200001	69.015
53.000000	69.093
53.799999	69.179
54.500000	69.253
55.200001	69.323
56.000000	69.399
57.000000	69.492
58.000000	69.577
59.000000	69.654
60.000000	69.727
60.799999	69.782
61.500000	69.829
62.200001	69.876
63.000000	69.930
64.000000	69.997
65.000000	70.063
66.000000	70.126
67.000000	70.184
68.000000	70.237
69.000000	70.287
70.000000	70.336
71.000000	70.387
72.000000	70.440
73.000000	70.489
74.000000	70.533
75.000000	70.572
76.199997	70.615
77.500000	70.653
78.800003	70.690
80.000000	70.733
81.199997	70.783
82.500000	70.835
83.800003	70.879
85.000000	70.913
86.199997	70.941
87.500000	70.966
88.500000	70.985
90.000000	71.016
91.199997	71.044
92.500000	71.077
93.800003	71.110
95.000000	71.135
96.199997	71.158
97.500000	71.179
98.800003	71.196
100.000000	71.209
101.500000	71.222
103.000000	71.241
104.400002	71.269
106.000000	71.311
107.500000	71.342
109.000000	71.364
110.599998	71.386
112.000000	71.408
113.800003	71.440
115.000000	71.458
117.199997	71.482
118.000000	71.488
120.599998	71.496
122.000000	71.500
124.099998	71.512
125.000000	71.521
126.500000	71.537
128.000000	71.551
131.500000	71.570
132.000000	71.574
134.000000	71.594
136.000000	71.618
138.000000	71.632
140.000000	71.624
143.000000	71.596
145.000000	71.589
147.500000	71.604
150.000000	71.626
152.500000	71.635
155.000000	71.635
157.500000	71.643
160.000000	71.665
162.500000	71.690
165.000000	71.699
167.500000	71.687
170.000000	71.675
172.500000	71.671
175.000000	71.666
177.500000	71.658
180.000000	71.650
182.500000	71.644
185.000000	71.637
187.500000	71.630
190.000000	71.623
192.500000	71.615
195.000000	71.607
197.500000	71.601
200.000000	71.599
203.000000	71.598
206.000000	71.594
209.000000	71.591
212.000000	71.590
214.000000	71.591
218.000000	71.596
220.000000	71.598
224.000000	71.596
227.000000	71.593
230.000000	71.590
233.000000	71.588
236.000000	71.586
240.000000	71.581
243.000000	71.572
247.000000	71.555
250.000000	71.542
254.000000	71.526
258.000000	71.513
262.000000	71.500
265.000000	71.491
269.000000	71.478
272.000000	71.469
276.000000	71.457
280.000000	71.444
285.000000	71.427
290.000000	71.408
295.000000	71.389
300.000000	71.369
304.000000	71.353
307.000000	71.342
311.000000	71.327
315.000000	71.312
320.000000	71.294
325.000000	71.275
330.000000	71.256
335.000000	71.237
340.000000	71.217
345.000000	71.197
350.000000	71.177
355.000000	71.157
360.000000	71.137
365.000000	71.118
370.000000	71.099
375.000000	71.079
382.000000	71.049
387.000000	71.028
395.000000	70.996
400.000000	70.976
406.000000	70.951
412.000000	70.927
418.000000	70.903
425.000000	70.876
431.000000	70.854
437.000000	70.834
444.000000	70.813
450.000000	70.796
455.000000	70.781
462.000000	70.762
468.000000	70.745
475.000000	70.726
482.000000	70.707
487.000000	70.693
494.000000	70.675
500.000000	70.659
508.000000	70.639
515.000000	70.622
522.000000	70.607
530.000000	70.590
538.000000	70.574
545.000000	70.560
552.000000	70.547
560.000000	70.532
570.000000	70.515
580.000000	70.499
590.000000	70.485
600.000000	70.472
608.000000	70.463
615.000000	70.456
622.000000	70.450
630.000000	70.444
640.000000	70.438
650.000000	70.433
660.000000	70.429
670.000000	70.426
680.000000	70.425
690.000000	70.428
700.000000	70.435
710.000000	70.444
720.000000	70.455
730.000000	70.467
740.000000	70.481
750.000000	70.497
762.000000	70.520
775.000000	70.549
788.000000	70.584
800.000000	70.621
812.000000	70.663
825.000000	70.713
838.000000	70.768
850.000000	70.821
862.000000	70.874
875.000000	70.930
885.000000	70.969
900.000000	71.022
912.000000	71.066
925.000000	71.124
938.000000	71.202
950.000000	71.291
962.000000	71.392
975.000000	71.507
988.000000	71.625
1000.000000	71.734
1015.000000	71.870
1030.000000	72.008
1044.000000	72.137
1060.000000	72.285
1075.000000	72.424
1090.000000	72.563
1106.000000	72.712
1120.000000	72.841
1138.000000	73.007
1150.000000	73.116
1172.000000	73.314
1180.000000	73.385
1206.000000	73.613
1220.000000	73.734
1241.000000	73.913
1250.000000	73.989
1265.000000	74.114
1280.000000	74.238
1315.000000	74.521
1320.000000	74.561
1340.000000	74.720
1360.000000	74.879
1380.000000	75.036
1400.000000	75.194
1430.000000	75.432
1450.000000	75.592
1475.000000	75.794
1500.000000	76.000
1525.000000	76.211
1550.000000	76.426
1575.000000	76.647
1600.000000	76.873
1625.000000	77.103
1650.000000	77.336
1675.000000	77.571
1700.000000	77.805
1725.000000	78.037
1750.000000	78.264
1775.000000	78.483
1800.000000	78.691
1825.000000	78.887
1850.000000	79.067
1875.000000	79.231
1900.000000	79.377
1925.000000	79.504
1950.000000	79.613
1975.000000	79.704
2000.000000	79.777
2030.000000	79.843
2060.000000	79.887
2090.000000	79.912
2120.000000	79.919
2140.000000	79.916
2180.000000	79.893
2200.000000	79.874
2240.000000	79.821
2270.000000	79.770
2300.000000	79.711
2330.000000	79.643
2360.000000	79.569
2400.000000	79.458
2430.000000	79.369
2470.000000	79.240
2500.000000	79.138
2540.000000	78.995
2580.000000	78.845
2620.000000	78.691
2650.000000	78.574
2690.000000	78.421
2720.000000	78.311
2760.000000	78.173
2800.000000	78.048
2850.000000	77.904
2900.000000	77.764
2950.000000	77.616
3000.000000	77.458
3040.000000	77.326
3070.000000	77.227
3110.000000	77.096
3150.000000	76.968
3200.000000	76.814
3250.000000	76.668
3300.000000	76.527
3350.000000	76.392
3400.000000	76.260
3450.000000	76.132
3500.000000	76.005
3550.000000	75.883
3600.000000	75.767
3650.000000	75.662
3700.000000	75.568
3750.000000	75.488
3820.000000	75.396
3870.000000	75.342
3950.000000	75.270
4000.000000	75.231
4060.000000	75.191
4120.000000	75.160
4180.000000	75.144
4250.000000	75.147
4310.000000	75.168
4370.000000	75.205
4440.000000	75.265
4500.000000	75.330
4550.000000	75.392
4620.000000	75.489
4680.000000	75.581
4750.000000	75.696
4820.000000	75.816
4870.000000	75.903
4940.000000	76.025
5000.000000	76.125
5080.000000	76.252
5150.000000	76.351
5220.000000	76.437
5300.000000	76.516
5380.000000	76.568
5450.000000	76.588
5520.000000	76.579
5600.000000	76.529
5700.000000	76.408
5800.000000	76.282
5900.000000	76.259
6000.000000	76.267
6080.000000	76.186
6150.000000	76.049
6220.000000	75.874
6300.000000	75.652
6400.000000	75.363
6500.000000	75.074
6600.000000	74.791
6700.000000	74.520
6800.000000	74.267
6900.000000	74.036
7000.000000	73.831
7100.000000	73.656
7200.000000	73.512
7300.000000	73.399
7400.000000	73.315
7500.000000	73.263
7620.000000	73.257
7750.000000	73.352
7880.000000	73.607
8000.000000	74.039
8120.000000	74.684
8250.000000	75.584
8380.000000	76.570
8500.000000	77.415
8620.000000	78.080
8750.000000	78.502
8850.000000	78.581
9000.000000	78.291
9120.000000	77.744
9250.000000	76.913
9380.000000	75.927
9500.000000	74.965
9620.000000	74.019
9750.000000	73.058
9880.000000	72.184
10000.000000	71.447
10150.000000	70.607
10300.000000	69.849
10440.000000	69.219
10600.000000	68.596
10750.000000	68.108
10900.000000	67.712
11060.000000	67.390
11200.000000	67.190
11380.000000	67.049
11500.000000	67.032
11720.000000	67.171
11800.000000	67.280
12060.000000	67.887
12200.000000	68.393
12410.000000	69.421
12500.000000	69.964
12650.000000	70.987
12800.000000	72.108
13150.000000	74.496
13200.000000	74.737
13400.000000	75.273
13600.000000	75.018
13800.000000	74.012
14000.000000	72.468
14300.000000	69.742
14500.000000	67.987
14750.000000	66.085
15000.000000	64.561
15250.000000	63.382
15500.000000	62.489
15750.000000	61.834
16000.000000	61.382
16250.000000	61.107
16500.000000	60.989
16750.000000	61.001
17000.000000	61.108
17250.000000	61.277
17500.000000	61.491
17750.000000	61.730
18000.000000	61.949
18250.000000	62.075
18500.000000	62.024
18750.000000	61.722
19000.000000	61.115
19250.000000	60.180
19500.000000	58.952
19750.000000	57.609
