* Measurement data measured by REW V5.20.13
* Source: Frequency Response Averaged data
* Format: Averaged data produced from the rms magnitudes of Tanchjim Ola Cal R, Tanchjim Ola Cal R, Tanchjim Ola Cal R, Tanchjim Ola Cal R, Tanchjim Ola Cal R
* Dated: Mar 23, 2024 7:58:24 PM
* REW Settings:
*  C-weighting compensation: Off
*  Target level: 75.0 dB
* Note: Averaged data produced from the rms magnitudes of Tanchjim Ola Cal R, Tanchjim Ola Cal R, Tanchjim Ola Cal R, Tanchjim Ola Cal R, Tanchjim Ola Cal R
* Measurement: RMS Average R
* Smoothing: 1/12 octave
* Frequency Step: 1/48 octave
* Start Frequency: 20.000 Hz
*
* Freq(Hz)	SPL(dB)
20.000000	58.975
20.299999	59.213
20.600000	59.451
20.900000	59.689
21.200001	59.928
21.400000	60.085
21.799999	60.392
22.000000	60.540
22.400000	60.823
22.700001	61.025
23.000000	61.219
23.299999	61.407
23.600000	61.592
24.000000	61.833
24.299999	62.011
24.700001	62.245
25.000000	62.418
25.400000	62.643
25.799999	62.861
26.200001	63.069
26.500000	63.219
26.900000	63.412
27.200001	63.554
27.600000	63.739
28.000000	63.919
28.500000	64.128
29.000000	64.317
29.500000	64.489
30.000000	64.656
30.400000	64.792
30.700001	64.896
31.100000	65.034
31.500000	65.167
32.000000	65.327
32.500000	65.482
33.000000	65.640
33.500000	65.801
34.000000	65.960
34.500000	66.113
35.000000	66.256
35.500000	66.393
36.000000	66.526
36.500000	66.655
37.000000	66.778
37.500000	66.890
38.200001	67.032
38.700001	67.131
39.500000	67.288
40.000000	67.385
40.599998	67.493
41.200001	67.595
41.799999	67.696
42.500000	67.814
43.099998	67.915
43.700001	68.011
44.400002	68.116
45.000000	68.203
45.500000	68.273
46.200001	68.368
46.799999	68.442
47.500000	68.516
48.200001	68.584
48.700001	68.636
49.400002	68.727
50.000000	68.817
50.799999	68.935
51.500000	69.018
52.200001	69.083
53.000000	69.146
53.799999	69.205
54.500000	69.256
55.200001	69.310
56.000000	69.374
57.000000	69.456
58.000000	69.536
59.000000	69.615
60.000000	69.691
60.799999	69.748
61.500000	69.794
62.200001	69.838
63.000000	69.887
64.000000	69.945
65.000000	69.996
66.000000	70.043
67.000000	70.089
68.000000	70.136
69.000000	70.182
70.000000	70.227
71.000000	70.269
72.000000	70.308
73.000000	70.343
74.000000	70.376
75.000000	70.407
76.199997	70.444
77.500000	70.485
78.800003	70.523
80.000000	70.557
81.199997	70.592
82.500000	70.629
83.800003	70.665
85.000000	70.697
86.199997	70.728
87.500000	70.757
88.500000	70.776
90.000000	70.798
91.199997	70.814
92.500000	70.833
93.800003	70.855
95.000000	70.875
96.199997	70.895
97.500000	70.914
98.800003	70.932
100.000000	70.949
101.500000	70.970
103.000000	70.994
104.400002	71.017
106.000000	71.040
107.500000	71.056
109.000000	71.064
110.599998	71.070
112.000000	71.078
113.800003	71.090
115.000000	71.096
117.199997	71.102
118.000000	71.105
120.599998	71.125
122.000000	71.140
124.099998	71.159
125.000000	71.164
126.500000	71.170
128.000000	71.175
131.500000	71.183
132.000000	71.184
134.000000	71.188
136.000000	71.193
138.000000	71.197
140.000000	71.193
143.000000	71.180
145.000000	71.178
147.500000	71.185
150.000000	71.197
152.500000	71.204
155.000000	71.201
157.500000	71.203
160.000000	71.222
162.500000	71.241
165.000000	71.237
167.500000	71.218
170.000000	71.198
172.500000	71.183
175.000000	71.176
177.500000	71.174
180.000000	71.172
182.500000	71.166
185.000000	71.156
187.500000	71.145
190.000000	71.136
192.500000	71.130
195.000000	71.123
197.500000	71.113
200.000000	71.100
203.000000	71.086
206.000000	71.075
209.000000	71.063
212.000000	71.051
214.000000	71.044
218.000000	71.030
220.000000	71.024
224.000000	71.013
227.000000	71.003
230.000000	70.993
233.000000	70.982
236.000000	70.970
240.000000	70.953
243.000000	70.940
247.000000	70.924
250.000000	70.912
254.000000	70.897
258.000000	70.882
262.000000	70.869
265.000000	70.861
269.000000	70.851
272.000000	70.844
276.000000	70.832
280.000000	70.817
285.000000	70.798
290.000000	70.777
295.000000	70.757
300.000000	70.738
304.000000	70.722
307.000000	70.710
311.000000	70.693
315.000000	70.676
320.000000	70.655
325.000000	70.635
330.000000	70.616
335.000000	70.597
340.000000	70.578
345.000000	70.558
350.000000	70.537
355.000000	70.517
360.000000	70.497
365.000000	70.478
370.000000	70.459
375.000000	70.441
382.000000	70.415
387.000000	70.397
395.000000	70.368
400.000000	70.350
406.000000	70.329
412.000000	70.308
418.000000	70.287
425.000000	70.263
431.000000	70.245
437.000000	70.227
444.000000	70.207
450.000000	70.192
455.000000	70.181
462.000000	70.168
468.000000	70.158
475.000000	70.148
482.000000	70.138
487.000000	70.130
494.000000	70.120
500.000000	70.111
508.000000	70.099
515.000000	70.089
522.000000	70.081
530.000000	70.071
538.000000	70.061
545.000000	70.053
552.000000	70.046
560.000000	70.038
570.000000	70.030
580.000000	70.025
590.000000	70.022
600.000000	70.020
608.000000	70.021
615.000000	70.022
622.000000	70.024
630.000000	70.028
640.000000	70.034
650.000000	70.042
660.000000	70.053
670.000000	70.066
680.000000	70.079
690.000000	70.092
700.000000	70.107
710.000000	70.130
720.000000	70.171
730.000000	70.235
740.000000	70.312
750.000000	70.377
762.000000	70.404
775.000000	70.370
788.000000	70.333
800.000000	70.336
812.000000	70.374
825.000000	70.436
838.000000	70.509
850.000000	70.581
862.000000	70.656
875.000000	70.741
885.000000	70.810
900.000000	70.917
912.000000	71.007
925.000000	71.108
938.000000	71.213
950.000000	71.313
962.000000	71.416
975.000000	71.532
988.000000	71.650
1000.000000	71.762
1015.000000	71.904
1030.000000	72.049
1044.000000	72.186
1060.000000	72.344
1075.000000	72.493
1090.000000	72.642
1106.000000	72.802
1120.000000	72.942
1138.000000	73.120
1150.000000	73.238
1172.000000	73.452
1180.000000	73.529
1206.000000	73.776
1220.000000	73.906
1241.000000	74.099
1250.000000	74.181
1265.000000	74.315
1280.000000	74.448
1315.000000	74.752
1320.000000	74.795
1340.000000	74.965
1360.000000	75.132
1380.000000	75.298
1400.000000	75.462
1430.000000	75.707
1450.000000	75.869
1475.000000	76.072
1500.000000	76.273
1525.000000	76.474
1550.000000	76.675
1575.000000	76.875
1600.000000	77.073
1625.000000	77.270
1650.000000	77.464
1675.000000	77.654
1700.000000	77.839
1725.000000	78.018
1750.000000	78.189
1775.000000	78.350
1800.000000	78.502
1825.000000	78.643
1850.000000	78.773
1875.000000	78.891
1900.000000	78.998
1925.000000	79.092
1950.000000	79.175
1975.000000	79.246
2000.000000	79.306
2030.000000	79.364
2060.000000	79.407
2090.000000	79.437
2120.000000	79.453
2140.000000	79.458
2180.000000	79.452
2200.000000	79.441
2240.000000	79.408
2270.000000	79.372
2300.000000	79.328
2330.000000	79.277
2360.000000	79.218
2400.000000	79.129
2430.000000	79.056
2470.000000	78.948
2500.000000	78.861
2540.000000	78.737
2580.000000	78.606
2620.000000	78.470
2650.000000	78.364
2690.000000	78.220
2720.000000	78.110
2760.000000	77.960
2800.000000	77.809
2850.000000	77.620
2900.000000	77.431
2950.000000	77.243
3000.000000	77.058
3040.000000	76.912
3070.000000	76.804
3110.000000	76.663
3150.000000	76.525
3200.000000	76.358
3250.000000	76.196
3300.000000	76.041
3350.000000	75.892
3400.000000	75.751
3450.000000	75.616
3500.000000	75.489
3550.000000	75.370
3600.000000	75.260
3650.000000	75.158
3700.000000	75.065
3750.000000	74.982
3820.000000	74.881
3870.000000	74.819
3950.000000	74.735
4000.000000	74.691
4060.000000	74.647
4120.000000	74.610
4180.000000	74.583
4250.000000	74.562
4310.000000	74.554
4370.000000	74.554
4440.000000	74.565
4500.000000	74.583
4550.000000	74.602
4620.000000	74.636
4680.000000	74.671
4750.000000	74.717
4820.000000	74.769
4870.000000	74.810
4940.000000	74.870
5000.000000	74.925
5080.000000	75.000
5150.000000	75.065
5220.000000	75.129
5300.000000	75.196
5380.000000	75.254
5450.000000	75.294
5520.000000	75.323
5600.000000	75.338
5700.000000	75.327
5800.000000	75.285
5900.000000	75.235
6000.000000	75.198
6080.000000	75.152
6150.000000	75.086
6220.000000	74.997
6300.000000	74.879
6400.000000	74.720
6500.000000	74.557
6600.000000	74.393
6700.000000	74.233
6800.000000	74.078
6900.000000	73.932
7000.000000	73.797
7100.000000	73.676
7200.000000	73.572
7300.000000	73.486
7400.000000	73.416
7500.000000	73.368
7620.000000	73.354
7750.000000	73.436
7880.000000	73.696
8000.000000	74.173
8120.000000	74.911
8250.000000	75.930
8380.000000	76.994
8500.000000	77.829
8620.000000	78.387
8750.000000	78.594
8850.000000	78.458
9000.000000	77.813
9120.000000	76.992
9250.000000	75.899
9380.000000	74.694
9500.000000	73.557
9620.000000	72.447
9750.000000	71.313
9880.000000	70.273
10000.000000	69.408
10150.000000	68.462
10300.000000	67.657
10440.000000	67.005
10600.000000	66.348
10750.000000	65.803
10900.000000	65.326
11060.000000	64.896
11200.000000	64.588
11380.000000	64.285
11500.000000	64.142
11720.000000	64.002
11800.000000	63.993
12060.000000	64.122
12200.000000	64.303
12410.000000	64.742
12500.000000	64.999
12650.000000	65.530
12800.000000	66.202
13150.000000	68.315
13200.000000	68.665
13400.000000	70.088
13600.000000	71.395
13800.000000	72.407
14000.000000	73.027
14300.000000	73.106
14500.000000	72.540
14750.000000	71.208
15000.000000	69.442
15250.000000	67.578
15500.000000	65.879
15750.000000	64.463
16000.000000	63.330
16250.000000	62.427
16500.000000	61.701
16750.000000	61.139
17000.000000	60.772
17250.000000	60.629
17500.000000	60.654
17750.000000	60.699
18000.000000	60.601
18250.000000	60.264
18500.000000	59.675
18750.000000	58.868
19000.000000	57.880
19250.000000	56.722
19500.000000	55.409
19750.000000	54.066
