* Measurement data measured by REW V5.20.13
* Source: Frequency Response Averaged data
* Format: Averaged data produced from the rms magnitudes of Truthear Hola Cal R, Truthear Hola Cal R, Truthear Hola Cal R, Truthear Hola Cal R, Truthear Hola Cal R
* Dated: Mar 23, 2024 8:09:54 PM
* REW Settings:
*  C-weighting compensation: Off
*  Target level: 75.0 dB
* Note: Averaged data produced from the rms magnitudes of Truthear Hola Cal R, Truthear Hola Cal R, Truthear Hola Cal R, Truthear Hola Cal R, Truthear Hola Cal R
* Measurement: RMS Average R
* Smoothing: 1/12 octave
* Frequency Step: 1/48 octave
* Start Frequency: 20.000 Hz
*
* Freq(Hz)	SPL(dB)
20.000000	70.955
20.299999	71.097
20.600000	71.233
20.900000	71.364
21.200001	71.491
21.400000	71.574
21.799999	71.736
22.000000	71.816
22.400000	71.974
22.700001	72.088
23.000000	72.197
23.299999	72.301
23.600000	72.399
24.000000	72.523
24.299999	72.611
24.700001	72.723
25.000000	72.803
25.400000	72.905
25.799999	73.001
26.200001	73.095
26.500000	73.167
26.900000	73.263
27.200001	73.337
27.600000	73.431
28.000000	73.517
28.500000	73.614
29.000000	73.702
29.500000	73.790
30.000000	73.875
30.400000	73.935
30.700001	73.974
31.100000	74.022
31.500000	74.067
32.000000	74.127
32.500000	74.190
33.000000	74.251
33.500000	74.309
34.000000	74.367
34.500000	74.428
35.000000	74.487
35.500000	74.545
36.000000	74.609
36.500000	74.677
37.000000	74.732
37.500000	74.752
38.200001	74.734
38.700001	74.730
39.500000	74.774
40.000000	74.795
40.599998	74.781
41.200001	74.760
41.799999	74.783
42.500000	74.851
43.099998	74.884
43.700001	74.880
44.400002	74.872
45.000000	74.883
45.500000	74.896
46.200001	74.906
46.799999	74.905
47.500000	74.907
48.200001	74.920
48.700001	74.933
49.400002	74.949
50.000000	74.956
50.799999	74.957
51.500000	74.954
52.200001	74.953
53.000000	74.955
53.799999	74.956
54.500000	74.953
55.200001	74.945
56.000000	74.931
57.000000	74.910
58.000000	74.886
59.000000	74.857
60.000000	74.821
60.799999	74.786
61.500000	74.754
62.200001	74.724
63.000000	74.691
64.000000	74.645
65.000000	74.599
66.000000	74.555
67.000000	74.515
68.000000	74.478
69.000000	74.450
70.000000	74.438
71.000000	74.450
72.000000	74.475
73.000000	74.492
74.000000	74.489
75.000000	74.461
76.199997	74.402
77.500000	74.322
78.800003	74.240
80.000000	74.176
81.199997	74.126
82.500000	74.092
83.800003	74.068
85.000000	74.039
86.199997	73.997
87.500000	73.943
88.500000	73.901
90.000000	73.841
91.199997	73.801
92.500000	73.764
93.800003	73.729
95.000000	73.695
96.199997	73.655
97.500000	73.608
98.800003	73.560
100.000000	73.516
101.500000	73.465
103.000000	73.416
104.400002	73.368
106.000000	73.308
107.500000	73.246
109.000000	73.183
110.599998	73.122
112.000000	73.076
113.800003	73.025
115.000000	72.991
117.199997	72.926
118.000000	72.900
120.599998	72.818
122.000000	72.779
124.099998	72.728
125.000000	72.706
126.500000	72.663
128.000000	72.616
131.500000	72.511
132.000000	72.497
134.000000	72.437
136.000000	72.356
138.000000	72.269
140.000000	72.208
143.000000	72.188
145.000000	72.197
147.500000	72.176
150.000000	72.084
152.500000	71.969
155.000000	71.907
157.500000	71.924
160.000000	71.996
162.500000	72.069
165.000000	72.018
167.500000	71.818
170.000000	71.622
172.500000	71.504
175.000000	71.431
177.500000	71.370
180.000000	71.320
182.500000	71.274
185.000000	71.218
187.500000	71.151
190.000000	71.085
192.500000	71.030
195.000000	70.983
197.500000	70.936
200.000000	70.890
203.000000	70.856
206.000000	70.849
209.000000	70.846
212.000000	70.830
214.000000	70.812
218.000000	70.770
220.000000	70.750
224.000000	70.724
227.000000	70.714
230.000000	70.692
233.000000	70.641
236.000000	70.573
240.000000	70.494
243.000000	70.449
247.000000	70.399
250.000000	70.365
254.000000	70.320
258.000000	70.277
262.000000	70.234
265.000000	70.202
269.000000	70.162
272.000000	70.132
276.000000	70.095
280.000000	70.059
285.000000	70.017
290.000000	69.975
295.000000	69.934
300.000000	69.894
304.000000	69.862
307.000000	69.839
311.000000	69.811
315.000000	69.784
320.000000	69.753
325.000000	69.724
330.000000	69.695
335.000000	69.667
340.000000	69.640
345.000000	69.614
350.000000	69.590
355.000000	69.568
360.000000	69.546
365.000000	69.525
370.000000	69.505
375.000000	69.485
382.000000	69.458
387.000000	69.439
395.000000	69.410
400.000000	69.394
406.000000	69.375
412.000000	69.357
418.000000	69.338
425.000000	69.318
431.000000	69.301
437.000000	69.286
444.000000	69.268
450.000000	69.253
455.000000	69.242
462.000000	69.226
468.000000	69.214
475.000000	69.201
482.000000	69.188
487.000000	69.180
494.000000	69.168
500.000000	69.160
508.000000	69.149
515.000000	69.141
522.000000	69.134
530.000000	69.127
538.000000	69.120
545.000000	69.115
552.000000	69.111
560.000000	69.107
570.000000	69.104
580.000000	69.101
590.000000	69.099
600.000000	69.099
608.000000	69.100
615.000000	69.102
622.000000	69.106
630.000000	69.110
640.000000	69.118
650.000000	69.126
660.000000	69.136
670.000000	69.147
680.000000	69.159
690.000000	69.173
700.000000	69.189
710.000000	69.207
720.000000	69.226
730.000000	69.247
740.000000	69.269
750.000000	69.293
762.000000	69.324
775.000000	69.360
788.000000	69.399
800.000000	69.439
812.000000	69.481
825.000000	69.530
838.000000	69.582
850.000000	69.632
862.000000	69.686
875.000000	69.747
885.000000	69.796
900.000000	69.873
912.000000	69.937
925.000000	70.010
938.000000	70.086
950.000000	70.158
962.000000	70.232
975.000000	70.314
988.000000	70.397
1000.000000	70.476
1015.000000	70.576
1030.000000	70.677
1044.000000	70.773
1060.000000	70.882
1075.000000	70.986
1090.000000	71.089
1106.000000	71.198
1120.000000	71.293
1138.000000	71.413
1150.000000	71.493
1172.000000	71.637
1180.000000	71.689
1206.000000	71.855
1220.000000	71.943
1241.000000	72.073
1250.000000	72.128
1265.000000	72.218
1280.000000	72.308
1315.000000	72.514
1320.000000	72.543
1340.000000	72.661
1360.000000	72.778
1380.000000	72.894
1400.000000	73.008
1430.000000	73.177
1450.000000	73.285
1475.000000	73.416
1500.000000	73.541
1525.000000	73.661
1550.000000	73.775
1575.000000	73.884
1600.000000	73.989
1625.000000	74.090
1650.000000	74.188
1675.000000	74.285
1700.000000	74.379
1725.000000	74.473
1750.000000	74.565
1775.000000	74.656
1800.000000	74.747
1825.000000	74.838
1850.000000	74.927
1875.000000	75.016
1900.000000	75.104
1925.000000	75.191
1950.000000	75.276
1975.000000	75.361
2000.000000	75.444
2030.000000	75.542
2060.000000	75.638
2090.000000	75.731
2120.000000	75.822
2140.000000	75.881
2180.000000	75.995
2200.000000	76.050
2240.000000	76.155
2270.000000	76.230
2300.000000	76.302
2330.000000	76.369
2360.000000	76.432
2400.000000	76.509
2430.000000	76.562
2470.000000	76.625
2500.000000	76.666
2540.000000	76.715
2580.000000	76.758
2620.000000	76.797
2650.000000	76.827
2690.000000	76.870
2720.000000	76.908
2760.000000	76.966
2800.000000	77.030
2850.000000	77.110
2900.000000	77.180
2950.000000	77.232
3000.000000	77.266
3040.000000	77.282
3070.000000	77.289
3110.000000	77.294
3150.000000	77.294
3200.000000	77.291
3250.000000	77.284
3300.000000	77.274
3350.000000	77.258
3400.000000	77.238
3450.000000	77.212
3500.000000	77.183
3550.000000	77.152
3600.000000	77.123
3650.000000	77.094
3700.000000	77.067
3750.000000	77.041
3820.000000	77.007
3870.000000	76.984
3950.000000	76.952
4000.000000	76.932
4060.000000	76.906
4120.000000	76.876
4180.000000	76.841
4250.000000	76.790
4310.000000	76.737
4370.000000	76.675
4440.000000	76.588
4500.000000	76.502
4550.000000	76.422
4620.000000	76.299
4680.000000	76.184
4750.000000	76.038
4820.000000	75.881
4870.000000	75.764
4940.000000	75.592
5000.000000	75.439
5080.000000	75.229
5150.000000	75.041
5220.000000	74.850
5300.000000	74.631
5380.000000	74.413
5450.000000	74.222
5520.000000	74.033
5600.000000	73.818
5700.000000	73.552
5800.000000	73.290
5900.000000	73.040
6000.000000	72.816
6080.000000	72.662
6150.000000	72.552
6220.000000	72.466
6300.000000	72.402
6400.000000	72.370
6500.000000	72.392
6600.000000	72.462
6700.000000	72.573
6800.000000	72.722
6900.000000	72.904
7000.000000	73.119
7100.000000	73.365
7200.000000	73.632
7300.000000	73.898
7400.000000	74.127
7500.000000	74.281
7620.000000	74.323
7750.000000	74.173
7880.000000	73.826
8000.000000	73.349
8120.000000	72.732
8250.000000	71.917
8380.000000	70.975
8500.000000	70.022
8620.000000	69.027
8750.000000	67.941
8850.000000	67.122
9000.000000	65.951
9120.000000	65.082
9250.000000	64.230
9380.000000	63.500
9500.000000	62.979
9620.000000	62.659
9750.000000	62.603
9880.000000	62.873
10000.000000	63.357
10150.000000	64.114
10300.000000	64.838
10440.000000	65.365
10600.000000	65.764
10750.000000	65.989
10900.000000	66.151
11060.000000	66.344
11200.000000	66.594
11380.000000	67.099
11500.000000	67.586
11720.000000	68.866
11800.000000	69.463
12060.000000	71.785
12200.000000	73.109
12410.000000	74.791
12500.000000	75.294
12650.000000	75.744
12800.000000	75.670
13150.000000	73.681
13200.000000	73.239
13400.000000	71.272
13600.000000	69.225
13800.000000	67.355
14000.000000	65.796
14300.000000	64.070
14500.000000	63.263
14750.000000	62.551
15000.000000	62.080
15250.000000	61.775
15500.000000	61.566
15750.000000	61.389
16000.000000	61.185
16250.000000	60.901
16500.000000	60.507
16750.000000	59.990
17000.000000	59.361
17250.000000	58.639
17500.000000	57.844
17750.000000	56.987
18000.000000	56.073
18250.000000	55.102
18500.000000	54.077
18750.000000	52.990
19000.000000	51.815
19250.000000	50.505
19500.000000	49.025
19750.000000	47.468
