* Measurement data measured by REW V5.20.13
* Source: Frequency Response Averaged data
* Format: Averaged data produced from the rms magnitudes of Truthear Hola Cal L, Truthear Hola Cal L, Truthear Hola Cal L, Truthear Hola Cal L, Truthear Hola Cal L
* Dated: Mar 23, 2024 8:09:43 PM
* REW Settings:
*  C-weighting compensation: Off
*  Target level: 75.0 dB
* Note: Averaged data produced from the rms magnitudes of Truthear Hola Cal L, Truthear Hola Cal L, Truthear Hola Cal L, Truthear Hola Cal L, Truthear Hola Cal L
* Measurement: RMS Average L
* Smoothing: 1/12 octave
* Frequency Step: 1/48 octave
* Start Frequency: 20.000 Hz
*
* Freq(Hz)	SPL(dB)
20.000000	70.089
20.299999	70.229
20.600000	70.364
20.900000	70.497
21.200001	70.624
21.400000	70.707
21.799999	70.864
22.000000	70.939
22.400000	71.084
22.700001	71.188
23.000000	71.290
23.299999	71.390
23.600000	71.488
24.000000	71.615
24.299999	71.705
24.700001	71.820
25.000000	71.901
25.400000	72.006
25.799999	72.108
26.200001	72.206
26.500000	72.277
26.900000	72.367
27.200001	72.431
27.600000	72.512
28.000000	72.589
28.500000	72.680
29.000000	72.766
29.500000	72.844
30.000000	72.915
30.400000	72.970
30.700001	73.010
31.100000	73.063
31.500000	73.117
32.000000	73.181
32.500000	73.239
33.000000	73.294
33.500000	73.348
34.000000	73.400
34.500000	73.450
35.000000	73.495
35.500000	73.536
36.000000	73.574
36.500000	73.613
37.000000	73.649
37.500000	73.683
38.200001	73.721
38.700001	73.744
39.500000	73.779
40.000000	73.801
40.599998	73.820
41.200001	73.829
41.799999	73.830
42.500000	73.830
43.099998	73.841
43.700001	73.866
44.400002	73.903
45.000000	73.926
45.500000	73.937
46.200001	73.945
46.799999	73.957
47.500000	73.974
48.200001	73.983
48.700001	73.980
49.400002	73.970
50.000000	73.959
50.799999	73.944
51.500000	73.930
52.200001	73.917
53.000000	73.903
53.799999	73.887
54.500000	73.874
55.200001	73.859
56.000000	73.837
57.000000	73.802
58.000000	73.777
59.000000	73.763
60.000000	73.748
60.799999	73.732
61.500000	73.717
62.200001	73.701
63.000000	73.682
64.000000	73.658
65.000000	73.633
66.000000	73.607
67.000000	73.578
68.000000	73.547
69.000000	73.515
70.000000	73.481
71.000000	73.447
72.000000	73.413
73.000000	73.379
74.000000	73.346
75.000000	73.313
76.199997	73.272
77.500000	73.228
78.800003	73.186
80.000000	73.149
81.199997	73.112
82.500000	73.066
83.800003	73.014
85.000000	72.964
86.199997	72.917
87.500000	72.868
88.500000	72.832
90.000000	72.780
91.199997	72.740
92.500000	72.696
93.800003	72.651
95.000000	72.605
96.199997	72.557
97.500000	72.506
98.800003	72.461
100.000000	72.425
101.500000	72.386
103.000000	72.347
104.400002	72.308
106.000000	72.256
107.500000	72.206
109.000000	72.161
110.599998	72.106
112.000000	72.050
113.800003	71.978
115.000000	71.935
117.199997	71.864
118.000000	71.839
120.599998	71.760
122.000000	71.721
124.099998	71.665
125.000000	71.642
126.500000	71.605
128.000000	71.570
131.500000	71.493
132.000000	71.482
134.000000	71.437
136.000000	71.396
138.000000	71.359
140.000000	71.309
143.000000	71.200
145.000000	71.113
147.500000	71.023
150.000000	70.978
152.500000	70.945
155.000000	70.903
157.500000	70.867
160.000000	70.853
162.500000	70.852
165.000000	70.810
167.500000	70.714
170.000000	70.621
172.500000	70.553
175.000000	70.496
177.500000	70.445
180.000000	70.396
182.500000	70.348
185.000000	70.302
187.500000	70.262
190.000000	70.224
192.500000	70.184
195.000000	70.147
197.500000	70.121
200.000000	70.104
203.000000	70.069
206.000000	70.010
209.000000	69.955
212.000000	69.915
214.000000	69.894
218.000000	69.854
220.000000	69.834
224.000000	69.794
227.000000	69.761
230.000000	69.731
233.000000	69.704
236.000000	69.676
240.000000	69.637
243.000000	69.610
247.000000	69.578
250.000000	69.553
254.000000	69.517
258.000000	69.479
262.000000	69.442
265.000000	69.415
269.000000	69.380
272.000000	69.354
276.000000	69.320
280.000000	69.287
285.000000	69.248
290.000000	69.212
295.000000	69.176
300.000000	69.141
304.000000	69.115
307.000000	69.096
311.000000	69.073
315.000000	69.050
320.000000	69.024
325.000000	68.998
330.000000	68.973
335.000000	68.948
340.000000	68.923
345.000000	68.900
350.000000	68.879
355.000000	68.857
360.000000	68.835
365.000000	68.815
370.000000	68.796
375.000000	68.777
382.000000	68.753
387.000000	68.736
395.000000	68.712
400.000000	68.699
406.000000	68.682
412.000000	68.667
418.000000	68.652
425.000000	68.636
431.000000	68.622
437.000000	68.610
444.000000	68.596
450.000000	68.585
455.000000	68.576
462.000000	68.565
468.000000	68.556
475.000000	68.545
482.000000	68.536
487.000000	68.529
494.000000	68.520
500.000000	68.513
508.000000	68.505
515.000000	68.499
522.000000	68.494
530.000000	68.489
538.000000	68.485
545.000000	68.482
552.000000	68.480
560.000000	68.478
570.000000	68.476
580.000000	68.476
590.000000	68.478
600.000000	68.481
608.000000	68.484
615.000000	68.486
622.000000	68.490
630.000000	68.495
640.000000	68.502
650.000000	68.511
660.000000	68.523
670.000000	68.536
680.000000	68.550
690.000000	68.565
700.000000	68.581
710.000000	68.598
720.000000	68.617
730.000000	68.638
740.000000	68.661
750.000000	68.685
762.000000	68.716
775.000000	68.754
788.000000	68.794
800.000000	68.834
812.000000	68.876
825.000000	68.924
838.000000	68.975
850.000000	69.025
862.000000	69.079
875.000000	69.140
885.000000	69.190
900.000000	69.267
912.000000	69.331
925.000000	69.402
938.000000	69.476
950.000000	69.545
962.000000	69.616
975.000000	69.695
988.000000	69.775
1000.000000	69.851
1015.000000	69.946
1030.000000	70.042
1044.000000	70.132
1060.000000	70.235
1075.000000	70.332
1090.000000	70.428
1106.000000	70.531
1120.000000	70.620
1138.000000	70.734
1150.000000	70.809
1172.000000	70.944
1180.000000	70.993
1206.000000	71.148
1220.000000	71.230
1241.000000	71.350
1250.000000	71.401
1265.000000	71.484
1280.000000	71.566
1315.000000	71.749
1320.000000	71.775
1340.000000	71.875
1360.000000	71.973
1380.000000	72.070
1400.000000	72.165
1430.000000	72.304
1450.000000	72.395
1475.000000	72.507
1500.000000	72.617
1525.000000	72.724
1550.000000	72.830
1575.000000	72.933
1600.000000	73.034
1625.000000	73.132
1650.000000	73.229
1675.000000	73.323
1700.000000	73.415
1725.000000	73.504
1750.000000	73.592
1775.000000	73.678
1800.000000	73.761
1825.000000	73.844
1850.000000	73.924
1875.000000	74.004
1900.000000	74.082
1925.000000	74.159
1950.000000	74.235
1975.000000	74.309
2000.000000	74.382
2030.000000	74.468
2060.000000	74.553
2090.000000	74.635
2120.000000	74.715
2140.000000	74.767
2180.000000	74.869
2200.000000	74.918
2240.000000	75.012
2270.000000	75.081
2300.000000	75.146
2330.000000	75.209
2360.000000	75.269
2400.000000	75.344
2430.000000	75.396
2470.000000	75.461
2500.000000	75.506
2540.000000	75.561
2580.000000	75.612
2620.000000	75.663
2650.000000	75.703
2690.000000	75.764
2720.000000	75.817
2760.000000	75.898
2800.000000	75.985
2850.000000	76.094
2900.000000	76.193
2950.000000	76.278
3000.000000	76.348
3040.000000	76.396
3070.000000	76.428
3110.000000	76.466
3150.000000	76.500
3200.000000	76.540
3250.000000	76.577
3300.000000	76.611
3350.000000	76.641
3400.000000	76.668
3450.000000	76.689
3500.000000	76.704
3550.000000	76.715
3600.000000	76.722
3650.000000	76.728
3700.000000	76.733
3750.000000	76.737
3820.000000	76.740
3870.000000	76.741
3950.000000	76.733
4000.000000	76.719
4060.000000	76.689
4120.000000	76.643
4180.000000	76.580
4250.000000	76.487
4310.000000	76.391
4370.000000	76.283
4440.000000	76.142
4500.000000	76.006
4550.000000	75.884
4620.000000	75.698
4680.000000	75.527
4750.000000	75.315
4820.000000	75.093
4870.000000	74.928
4940.000000	74.693
5000.000000	74.487
5080.000000	74.211
5150.000000	73.969
5220.000000	73.729
5300.000000	73.458
5380.000000	73.194
5450.000000	72.969
5520.000000	72.751
5600.000000	72.510
5700.000000	72.222
5800.000000	71.950
5900.000000	71.699
6000.000000	71.475
6080.000000	71.320
6150.000000	71.206
6220.000000	71.115
6300.000000	71.042
6400.000000	71.000
6500.000000	71.018
6600.000000	71.094
6700.000000	71.227
6800.000000	71.411
6900.000000	71.643
7000.000000	71.916
7100.000000	72.225
7200.000000	72.564
7300.000000	72.916
7400.000000	73.257
7500.000000	73.550
7620.000000	73.780
7750.000000	73.816
7880.000000	73.596
8000.000000	73.186
8120.000000	72.624
8250.000000	71.901
8380.000000	71.094
8500.000000	70.288
8620.000000	69.427
8750.000000	68.448
8850.000000	67.682
9000.000000	66.546
9120.000000	65.675
9250.000000	64.789
9380.000000	63.973
9500.000000	63.287
9620.000000	62.671
9750.000000	62.093
9880.000000	61.634
10000.000000	61.353
10150.000000	61.279
10300.000000	61.602
10440.000000	62.269
10600.000000	63.315
10750.000000	64.357
10900.000000	65.298
11060.000000	66.133
11200.000000	66.752
11380.000000	67.514
11500.000000	68.080
11720.000000	69.392
11800.000000	69.977
12060.000000	72.185
12200.000000	73.403
12410.000000	74.881
12500.000000	75.286
12650.000000	75.566
12800.000000	75.327
13150.000000	73.095
13200.000000	72.645
13400.000000	70.717
13600.000000	68.796
13800.000000	67.090
14000.000000	65.692
14300.000000	64.158
14500.000000	63.447
14750.000000	62.830
15000.000000	62.435
15250.000000	62.187
15500.000000	62.011
15750.000000	61.839
16000.000000	61.612
16250.000000	61.285
16500.000000	60.827
16750.000000	60.220
17000.000000	59.457
17250.000000	58.535
17500.000000	57.458
17750.000000	56.235
18000.000000	54.879
18250.000000	53.411
18500.000000	51.860
18750.000000	50.269
19000.000000	48.691
19250.000000	47.178
19500.000000	45.764
19750.000000	44.518
