* Measurement data measured by REW V5.20.13
* Source: EXCL: Headset (USB-C to 3.5mm Headphone Jack Adapter), MICROPHONE (Master Volume), 0, volume: 0.260. Timing signal peak level -31.0 dBFS, measurement signal peak level -26.9 dBFS
* Format: 256k Log Swept Sine, 1 sweep at -20.0 dBFS using an acoustic timing reference
* Dated: Jun 7, 2023 4:43:40 PM
* REW Settings:
*  C-weighting compensation: Off
*  Target level: 75.0 dB
* Note: RE2
* Measurement: RE2 w/ Coreir Brass Tip
* Smoothing: 1/12 octave
* Frequency Step: 1/48 octave
* Start Frequency: 20.000 Hz
*
* Freq(Hz)	SPL(dB)	Phase(degrees)
20.000000	78.464	-81.4076
20.299999	78.567	-82.3536
20.600000	78.674	-83.1505
20.900000	78.795	-83.8371
21.200001	78.935	-84.4919
21.400000	79.037	-84.9595
21.799999	79.250	-86.0196
22.000000	79.353	-86.6219
22.400000	79.541	-87.9386
22.700001	79.662	-88.9583
23.000000	79.768	-89.9409
23.299999	79.864	-90.8560
23.600000	79.958	-91.7031
24.000000	80.085	-92.7581
24.299999	80.184	-93.5328
24.700001	80.319	-94.5864
25.000000	80.417	-95.4043
25.400000	80.542	-96.5246
25.799999	80.655	-97.6528
26.200001	80.759	-98.7597
26.500000	80.831	-99.5626
26.900000	80.923	-100.5872
27.200001	80.991	-101.3205
27.600000	81.083	-102.2595
28.000000	81.178	-103.1752
28.500000	81.301	-104.3265
29.000000	81.422	-105.5090
29.500000	81.534	-106.7042
30.000000	81.637	-107.8704
30.400000	81.715	-108.7683
30.700001	81.773	-109.4250
31.100000	81.848	-110.2889
31.500000	81.920	-111.1440
32.000000	82.004	-112.1900
32.500000	82.080	-113.1875
33.000000	82.154	-114.1318
33.500000	82.229	-115.0466
34.000000	82.304	-115.9612
34.500000	82.374	-116.8834
35.000000	82.439	-117.8019
35.500000	82.498	-118.7031
36.000000	82.555	-119.5817
36.500000	82.610	-120.4389
37.000000	82.664	-121.2791
37.500000	82.719	-122.1099
38.200001	82.795	-123.2700
38.700001	82.847	-124.0942
39.500000	82.925	-125.3814
40.000000	82.971	-126.1587
40.599998	83.022	-127.0590
41.200001	83.069	-127.9116
41.799999	83.116	-128.7116
42.500000	83.173	-129.6096
43.099998	83.222	-130.3891
43.700001	83.266	-131.1848
44.400002	83.309	-132.1060
45.000000	83.343	-132.8783
45.500000	83.372	-133.5217
46.200001	83.412	-134.4399
46.799999	83.444	-135.2407
47.500000	83.479	-136.1784
48.200001	83.512	-137.1113
48.700001	83.534	-137.7641
49.400002	83.563	-138.6455
50.000000	83.589	-139.3828
50.799999	83.614	-140.3566
51.500000	83.622	-141.1345
52.200001	83.624	-141.7617
53.000000	83.641	-142.3483
53.799999	83.672	-142.9564
54.500000	83.700	-143.5483
55.200001	83.724	-144.1670
56.000000	83.748	-144.8950
57.000000	83.775	-145.8347
58.000000	83.797	-146.7967
59.000000	83.809	-147.7542
60.000000	83.812	-148.6037
60.799999	83.817	-149.1918
61.500000	83.826	-149.6836
62.200001	83.837	-150.1769
63.000000	83.847	-150.7418
64.000000	83.855	-151.4520
65.000000	83.860	-152.1756
66.000000	83.860	-152.9035
67.000000	83.858	-153.6246
68.000000	83.856	-154.3329
69.000000	83.855	-155.0234
70.000000	83.854	-155.6936
71.000000	83.852	-156.3438
72.000000	83.849	-156.9732
73.000000	83.843	-157.5810
74.000000	83.836	-158.1713
75.000000	83.827	-158.7471
76.199997	83.814	-159.4120
77.500000	83.800	-160.0916
78.800003	83.787	-160.7369
80.000000	83.776	-161.3153
81.199997	83.766	-161.8909
82.500000	83.752	-162.5278
83.800003	83.732	-163.1554
85.000000	83.714	-163.7062
86.199997	83.696	-164.2348
87.500000	83.678	-164.7904
88.500000	83.664	-165.2055
90.000000	83.641	-165.8099
91.199997	83.621	-166.2838
92.500000	83.597	-166.7932
93.800003	83.572	-167.2967
95.000000	83.550	-167.7509
96.199997	83.528	-168.1901
97.500000	83.505	-168.6424
98.800003	83.481	-169.0663
100.000000	83.459	-169.4337
101.500000	83.428	-169.8699
103.000000	83.396	-170.3014
104.400002	83.365	-170.7123
106.000000	83.328	-171.1845
107.500000	83.295	-171.6134
109.000000	83.263	-172.0172
110.599998	83.232	-172.4239
112.000000	83.206	-172.7706
113.800003	83.174	-173.2062
115.000000	83.155	-173.4770
117.199997	83.125	-173.9376
118.000000	83.115	-174.1115
120.599998	83.061	-174.7207
122.000000	83.015	-175.0224
124.099998	82.942	-175.4207
125.000000	82.914	-175.5853
126.500000	82.870	-175.8562
128.000000	82.831	-176.1125
131.500000	82.749	-176.6353
132.000000	82.738	-176.7066
134.000000	82.696	-177.0004
136.000000	82.656	-177.3075
138.000000	82.614	-177.6048
140.000000	82.568	-177.8732
143.000000	82.493	-178.2265
145.000000	82.443	-178.4491
147.500000	82.381	-178.7240
150.000000	82.320	-178.9875
152.500000	82.260	-179.2288
155.000000	82.204	-179.4440
157.500000	82.150	-179.6369
160.000000	82.091	-179.8197
162.500000	82.027	-179.9997
165.000000	81.961	179.8255
167.500000	81.898	179.6650
170.000000	81.834	179.5405
172.500000	81.768	179.4619
175.000000	81.699	179.4192
177.500000	81.628	179.4069
180.000000	81.556	179.4307
182.500000	81.485	179.5030
185.000000	81.417	179.6403
187.500000	81.356	179.8551
190.000000	81.308	-179.8577
192.500000	81.277	-179.5370
195.000000	81.266	-179.2460
197.500000	81.270	-179.0392
200.000000	81.280	-178.9396
203.000000	81.289	-178.9521
206.000000	81.287	-179.0730
209.000000	81.270	-179.2533
212.000000	81.240	-179.4422
214.000000	81.214	-179.5551
218.000000	81.158	-179.7330
220.000000	81.127	-179.7963
224.000000	81.064	-179.8775
227.000000	81.015	-179.9000
230.000000	80.966	-179.8932
233.000000	80.917	-179.8731
236.000000	80.867	-179.8533
240.000000	80.800	-179.8167
243.000000	80.750	-179.7618
247.000000	80.687	-179.6474
250.000000	80.643	-179.5366
254.000000	80.587	-179.3655
258.000000	80.531	-179.1837
262.000000	80.474	-179.0050
265.000000	80.432	-178.8761
269.000000	80.379	-178.7052
272.000000	80.340	-178.5699
276.000000	80.291	-178.3750
280.000000	80.243	-178.1669
285.000000	80.185	-177.8975
290.000000	80.128	-177.6315
295.000000	80.072	-177.3661
300.000000	80.017	-177.0855
304.000000	79.974	-176.8459
307.000000	79.942	-176.6604
311.000000	79.900	-176.4119
315.000000	79.859	-176.1637
320.000000	79.809	-175.8471
325.000000	79.759	-175.5158
330.000000	79.710	-175.1658
335.000000	79.663	-174.8003
340.000000	79.618	-174.4256
345.000000	79.576	-174.0490
350.000000	79.537	-173.6757
355.000000	79.501	-173.3030
360.000000	79.466	-172.9242
365.000000	79.432	-172.5380
370.000000	79.398	-172.1526
375.000000	79.364	-171.7713
382.000000	79.319	-171.2345
387.000000	79.288	-170.8467
395.000000	79.240	-170.2265
400.000000	79.212	-169.8419
406.000000	79.178	-169.3821
412.000000	79.146	-168.9203
418.000000	79.114	-168.4533
425.000000	79.078	-167.9021
431.000000	79.047	-167.4256
437.000000	79.018	-166.9441
444.000000	78.985	-166.3747
450.000000	78.958	-165.8833
455.000000	78.937	-165.4733
462.000000	78.908	-164.8980
468.000000	78.885	-164.4021
475.000000	78.860	-163.8182
482.000000	78.836	-163.2288
487.000000	78.820	-162.8064
494.000000	78.798	-162.2147
500.000000	78.781	-161.7064
508.000000	78.760	-161.0253
515.000000	78.742	-160.4255
522.000000	78.725	-159.8236
530.000000	78.707	-159.1350
538.000000	78.691	-158.4474
545.000000	78.678	-157.8472
552.000000	78.666	-157.2481
560.000000	78.654	-156.5632
570.000000	78.640	-155.7020
580.000000	78.629	-154.8313
590.000000	78.619	-153.9534
600.000000	78.613	-153.0749
608.000000	78.609	-152.3743
615.000000	78.607	-151.7615
622.000000	78.606	-151.1465
630.000000	78.606	-150.4400
640.000000	78.608	-149.5538
650.000000	78.612	-148.6682
660.000000	78.618	-147.7829
670.000000	78.627	-146.8954
680.000000	78.638	-146.0064
690.000000	78.652	-145.1183
700.000000	78.667	-144.2297
710.000000	78.684	-143.3400
720.000000	78.703	-142.4499
730.000000	78.725	-141.5584
740.000000	78.749	-140.6660
750.000000	78.775	-139.7749
762.000000	78.811	-138.7094
775.000000	78.853	-137.5616
788.000000	78.899	-136.4213
800.000000	78.945	-135.3728
812.000000	78.994	-134.3267
825.000000	79.052	-133.1994
838.000000	79.115	-132.0812
850.000000	79.177	-131.0583
862.000000	79.241	-130.0459
875.000000	79.316	-128.9633
885.000000	79.375	-128.1419
900.000000	79.469	-126.9286
912.000000	79.547	-125.9748
925.000000	79.636	-124.9611
938.000000	79.727	-123.9713
950.000000	79.815	-123.0802
962.000000	79.904	-122.2112
975.000000	80.004	-121.2954
988.000000	80.105	-120.4058
1000.000000	80.200	-119.6076
1015.000000	80.320	-118.6430
1030.000000	80.442	-117.7205
1044.000000	80.554	-116.9001
1060.000000	80.680	-116.0053
1075.000000	80.793	-115.1937
1090.000000	80.901	-114.3882
1106.000000	81.010	-113.5145
1120.000000	81.101	-112.7161
1138.000000	81.215	-111.5944
1150.000000	81.295	-110.7558
1172.000000	81.482	-109.0209
1180.000000	81.570	-108.3636
1206.000000	81.938	-106.5330
1220.000000	82.156	-105.9267
1241.000000	82.451	-105.4946
1250.000000	82.559	-105.4106
1265.000000	82.714	-105.3062
1280.000000	82.848	-105.1841
1315.000000	83.115	-104.7194
1320.000000	83.151	-104.6349
1340.000000	83.292	-104.2668
1360.000000	83.430	-103.8656
1380.000000	83.567	-103.4463
1400.000000	83.703	-103.0181
1430.000000	83.905	-102.3720
1450.000000	84.039	-101.9433
1475.000000	84.206	-101.4126
1500.000000	84.373	-100.8915
1525.000000	84.539	-100.3828
1550.000000	84.705	-99.8886
1575.000000	84.871	-99.4106
1600.000000	85.036	-98.9501
1625.000000	85.202	-98.5093
1650.000000	85.368	-98.0894
1675.000000	85.535	-97.6919
1700.000000	85.701	-97.3198
1725.000000	85.867	-96.9754
1750.000000	86.034	-96.6591
1775.000000	86.200	-96.3722
1800.000000	86.367	-96.1171
1825.000000	86.533	-95.8958
1850.000000	86.698	-95.7095
1875.000000	86.863	-95.5592
1900.000000	87.027	-95.4461
1925.000000	87.189	-95.3719
1950.000000	87.350	-95.3378
1975.000000	87.508	-95.3457
2000.000000	87.665	-95.3970
2030.000000	87.849	-95.5163
2060.000000	88.028	-95.6992
2090.000000	88.201	-95.9462
2120.000000	88.368	-96.2574
2140.000000	88.475	-96.5001
2180.000000	88.678	-97.0684
2200.000000	88.773	-97.3925
2240.000000	88.949	-98.1152
2270.000000	89.066	-98.7158
2300.000000	89.170	-99.3592
2330.000000	89.260	-100.0358
2360.000000	89.336	-100.7334
2400.000000	89.412	-101.6725
2430.000000	89.453	-102.3661
2470.000000	89.486	-103.2539
2500.000000	89.496	-103.8797
2540.000000	89.494	-104.6498
2580.000000	89.477	-105.3435
2620.000000	89.448	-105.9657
2650.000000	89.419	-106.3901
2690.000000	89.373	-106.9040
2720.000000	89.331	-107.2513
2760.000000	89.269	-107.6631
2800.000000	89.197	-108.0139
2850.000000	89.097	-108.3625
2900.000000	88.987	-108.6083
2950.000000	88.869	-108.7519
3000.000000	88.746	-108.7958
3040.000000	88.643	-108.7629
3070.000000	88.566	-108.7006
3110.000000	88.461	-108.5698
3150.000000	88.356	-108.3874
3200.000000	88.224	-108.0925
3250.000000	88.094	-107.7312
3300.000000	87.965	-107.3128
3350.000000	87.838	-106.8466
3400.000000	87.714	-106.3408
3450.000000	87.592	-105.8030
3500.000000	87.474	-105.2401
3550.000000	87.357	-104.6582
3600.000000	87.242	-104.0633
3650.000000	87.129	-103.4619
3700.000000	87.018	-102.8598
3750.000000	86.906	-102.2619
3820.000000	86.750	-101.4381
3870.000000	86.637	-100.8626
3950.000000	86.450	-99.9674
4000.000000	86.329	-99.4228
4060.000000	86.178	-98.7818
4120.000000	86.018	-98.1511
4180.000000	85.849	-97.5245
4250.000000	85.639	-96.7868
4310.000000	85.447	-96.1373
4370.000000	85.244	-95.4601
4440.000000	84.991	-94.6179
4500.000000	84.761	-93.8332
4550.000000	84.561	-93.1202
4620.000000	84.270	-92.0097
4680.000000	84.015	-90.9461
4750.000000	83.718	-89.6003
4820.000000	83.423	-88.1863
4870.000000	83.209	-87.1406
4940.000000	82.903	-85.6016
5000.000000	82.635	-84.1893
5080.000000	82.276	-82.1544
5150.000000	81.963	-80.2323
5220.000000	81.655	-78.1874
5300.000000	81.313	-75.7135
5380.000000	80.982	-73.1088
5450.000000	80.704	-70.7353
5520.000000	80.438	-68.2846
5600.000000	80.148	-65.4019
5700.000000	79.810	-61.6953
5800.000000	79.497	-57.8948
5900.000000	79.211	-54.0228
6000.000000	78.951	-50.0976
6080.000000	78.761	-46.9270
6150.000000	78.607	-44.1339
6220.000000	78.466	-41.3251
6300.000000	78.318	-38.0974
6400.000000	78.157	-34.0375
6500.000000	78.022	-29.9514
6600.000000	77.913	-25.8424
6700.000000	77.830	-21.7146
6800.000000	77.777	-17.5692
6900.000000	77.756	-13.4095
7000.000000	77.770	-9.2450
7100.000000	77.822	-5.0933
7200.000000	77.916	-0.9799
7300.000000	78.053	3.0696
7400.000000	78.235	7.0355
7500.000000	78.463	10.8978
7620.000000	78.804	15.3565
7750.000000	79.266	19.8921
7880.000000	79.832	23.9921
8000.000000	80.453	27.2281
8120.000000	81.163	29.7311
8250.000000	82.011	31.3136
8380.000000	82.892	31.3442
8500.000000	83.662	29.6710
8620.000000	84.302	26.1978
8750.000000	84.743	20.5820
8850.000000	84.846	15.3990
9000.000000	84.569	7.5300
9120.000000	83.995	2.3249
9250.000000	83.098	-1.3271
9380.000000	82.027	-2.6125
9500.000000	80.987	-1.8221
9620.000000	79.986	0.5470
9750.000000	79.029	4.4321
9880.000000	78.268	9.1405
10000.000000	77.766	13.7156
10150.000000	77.385	19.1087
10300.000000	77.185	23.6699
10440.000000	77.060	27.0987
10600.000000	76.898	30.3523
10750.000000	76.701	33.2025
10900.000000	76.480	36.1804
11060.000000	76.260	39.6191
11200.000000	76.115	42.8086
11380.000000	76.033	46.9843
11500.000000	76.058	49.6944
11720.000000	76.293	54.1915
11800.000000	76.442	55.5851
12060.000000	77.164	58.7011
12200.000000	77.686	59.1291
12410.000000	78.565	57.4314
12500.000000	78.942	55.6576
12650.000000	79.509	51.1287
12800.000000	79.924	44.6468
13150.000000	79.932	24.4822
13200.000000	79.807	21.4593
13400.000000	79.014	10.2404
13600.000000	77.858	1.2524
13800.000000	76.506	-5.2592
14000.000000	75.118	-9.7327
14300.000000	73.212	-14.0027
14500.000000	72.149	-16.0159
14750.000000	71.085	-18.2903
15000.000000	70.303	-20.8134
15250.000000	69.773	-24.0415
15500.000000	69.448	-28.3830
15750.000000	69.269	-34.2071
16000.000000	69.157	-41.8214
16250.000000	69.024	-51.3985
16500.000000	68.780	-62.8844
16750.000000	68.349	-75.9223
17000.000000	67.683	-89.8899
17250.000000	66.781	-104.1296
17500.000000	65.686	-118.2147
17750.000000	64.471	-132.0820
18000.000000	63.220	-146.0278
18250.000000	62.019	-160.6572
18500.000000	60.938	-176.8408
18750.000000	60.009	164.3856
19000.000000	59.188	142.2243
19250.000000	58.362	116.9039
19500.000000	57.456	90.4280
19750.000000	56.538	67.0253
