* Measurement data measured by REW V5.20.13
* Source: EXCL: Headset (USB-C to 3.5mm Headphone Jack Adapter), MICROPHONE (Master Volume), 0, volume: 0.260
* Format: 256k Log Swept Sine, 1 sweep at -12.0 dBFS with no timing reference
* Dated: Aug 31, 2023 6:08:49 PM
* REW Settings:
*  C-weighting compensation: Off
*  Target level: 75.0 dB
* Note: 
* Measurement: AKG N700NC M2 Wireless
* Smoothing: 1/12 octave
* Frequency Step: 1/48 octave
* Start Frequency: 20.000 Hz
*
* Freq(Hz)	SPL(dB)	Phase(degrees)
20.000000	87.596	-116.3851
20.299999	87.733	-117.3586
20.600000	87.863	-118.3331
20.900000	87.985	-119.3084
21.200001	88.100	-120.2809
21.400000	88.173	-120.9247
21.799999	88.310	-122.1949
22.000000	88.374	-122.8194
22.400000	88.498	-124.0470
22.700001	88.586	-124.9506
23.000000	88.671	-125.8410
23.299999	88.753	-126.7178
23.600000	88.831	-127.5793
24.000000	88.932	-128.7008
24.299999	89.004	-129.5219
24.700001	89.098	-130.5955
25.000000	89.166	-131.3901
25.400000	89.251	-132.4385
25.799999	89.328	-133.4672
26.200001	89.397	-134.4590
26.500000	89.444	-135.1692
26.900000	89.504	-136.0690
27.200001	89.548	-136.7142
27.600000	89.605	-137.5509
28.000000	89.662	-138.3761
28.500000	89.727	-139.4012
29.000000	89.785	-140.4099
29.500000	89.838	-141.3904
30.000000	89.887	-142.3429
30.400000	89.924	-143.0903
30.700001	89.951	-143.6444
31.100000	89.986	-144.3745
31.500000	90.020	-145.0924
32.000000	90.060	-145.9698
32.500000	90.101	-146.8245
33.000000	90.143	-147.6611
33.500000	90.185	-148.4868
34.000000	90.227	-149.3071
34.500000	90.267	-150.1204
35.000000	90.305	-150.9203
35.500000	90.343	-151.7063
36.000000	90.381	-152.4910
36.500000	90.418	-153.2927
37.000000	90.449	-154.1174
37.500000	90.473	-154.9518
38.200001	90.493	-156.0945
38.700001	90.501	-156.8748
39.500000	90.508	-158.0630
40.000000	90.511	-158.7750
40.599998	90.515	-159.6032
41.200001	90.518	-160.4085
41.799999	90.522	-161.1954
42.500000	90.527	-162.0887
43.099998	90.530	-162.8309
43.700001	90.534	-163.5563
44.400002	90.539	-164.3920
45.000000	90.540	-165.1015
45.500000	90.540	-165.6844
46.200001	90.535	-166.4847
46.799999	90.529	-167.1599
47.500000	90.518	-167.9419
48.200001	90.504	-168.7158
48.700001	90.491	-169.2593
49.400002	90.472	-170.0069
50.000000	90.456	-170.6409
50.799999	90.433	-171.4818
51.500000	90.412	-172.2085
52.200001	90.390	-172.9217
53.000000	90.362	-173.7179
53.799999	90.330	-174.4827
54.500000	90.299	-175.1154
55.200001	90.265	-175.7144
56.000000	90.222	-176.3613
57.000000	90.161	-177.1104
58.000000	90.092	-177.7677
59.000000	90.029	-178.3208
60.000000	89.983	-178.9031
60.799999	89.946	-179.4636
61.500000	89.905	-179.9739
62.200001	89.858	179.5500
63.000000	89.805	179.0591
64.000000	89.743	178.5076
65.000000	89.688	178.0134
66.000000	89.639	177.5534
67.000000	89.592	177.1110
68.000000	89.545	176.6865
69.000000	89.498	176.2776
70.000000	89.451	175.8738
71.000000	89.403	175.4696
72.000000	89.354	175.0657
73.000000	89.305	174.6620
74.000000	89.254	174.2628
75.000000	89.203	173.8770
76.199997	89.140	173.4348
77.500000	89.071	172.9728
78.800003	88.999	172.5255
80.000000	88.927	172.1376
81.199997	88.850	171.7904
82.500000	88.760	171.4893
83.800003	88.668	171.2949
85.000000	88.587	171.2083
86.199997	88.513	171.1852
87.500000	88.442	171.1960
88.500000	88.394	171.2108
90.000000	88.331	171.2258
91.199997	88.287	171.2277
92.500000	88.246	171.2158
93.800003	88.208	171.1939
95.000000	88.174	171.1829
96.199997	88.143	171.1942
97.500000	88.114	171.2252
98.800003	88.091	171.2556
100.000000	88.074	171.2690
101.500000	88.056	171.2629
103.000000	88.041	171.2324
104.400002	88.029	171.1722
106.000000	88.017	171.0502
107.500000	88.002	170.8770
109.000000	87.982	170.6523
110.599998	87.950	170.3878
112.000000	87.915	170.1734
113.800003	87.865	169.9443
115.000000	87.831	169.8157
117.199997	87.768	169.6170
118.000000	87.746	169.5569
120.599998	87.682	169.4097
122.000000	87.654	169.3479
124.099998	87.617	169.2590
125.000000	87.601	169.2232
126.500000	87.573	169.1661
128.000000	87.545	169.1088
131.500000	87.480	168.9591
132.000000	87.472	168.9354
134.000000	87.439	168.8359
136.000000	87.407	168.7371
138.000000	87.372	168.6516
140.000000	87.337	168.5593
143.000000	87.283	168.3033
145.000000	87.239	168.0836
147.500000	87.179	167.8454
150.000000	87.110	167.6819
152.500000	87.033	167.6053
155.000000	86.952	167.6272
157.500000	86.880	167.7546
160.000000	86.826	167.9501
162.500000	86.789	168.1470
165.000000	86.762	168.2955
167.500000	86.738	168.3837
170.000000	86.714	168.4289
172.500000	86.686	168.4576
175.000000	86.654	168.4884
177.500000	86.618	168.5216
180.000000	86.580	168.5474
182.500000	86.539	168.5627
185.000000	86.496	168.5799
187.500000	86.448	168.6175
190.000000	86.395	168.6906
192.500000	86.340	168.8138
195.000000	86.284	168.9979
197.500000	86.233	169.2484
200.000000	86.187	169.5650
203.000000	86.147	170.0055
206.000000	86.128	170.4509
209.000000	86.127	170.8410
212.000000	86.130	171.1404
214.000000	86.129	171.2892
218.000000	86.113	171.5220
220.000000	86.101	171.6335
224.000000	86.077	171.8876
227.000000	86.061	172.1155
230.000000	86.047	172.3669
233.000000	86.038	172.6242
236.000000	86.032	172.8721
240.000000	86.029	173.1740
243.000000	86.027	173.3777
247.000000	86.024	173.6227
250.000000	86.021	173.7901
254.000000	86.017	174.0065
258.000000	86.011	174.2281
262.000000	86.003	174.4620
265.000000	85.997	174.6533
269.000000	85.991	174.9336
272.000000	85.989	175.1521
276.000000	85.991	175.4273
280.000000	85.995	175.6673
285.000000	85.997	175.9388
290.000000	85.994	176.2203
295.000000	85.991	176.5223
300.000000	85.987	176.8426
304.000000	85.981	177.1265
307.000000	85.975	177.3690
311.000000	85.972	177.7379
315.000000	85.980	178.1339
320.000000	86.003	178.5946
325.000000	86.033	178.9765
330.000000	86.062	179.2995
335.000000	86.088	179.5948
340.000000	86.113	179.8759
345.000000	86.135	-179.8557
350.000000	86.156	-179.5995
355.000000	86.174	-179.3486
360.000000	86.189	-179.0912
365.000000	86.201	-178.8186
370.000000	86.211	-178.5266
375.000000	86.222	-178.2170
382.000000	86.238	-177.7584
387.000000	86.250	-177.4122
395.000000	86.273	-176.8235
400.000000	86.289	-176.4353
406.000000	86.312	-175.9538
412.000000	86.339	-175.4621
418.000000	86.368	-174.9678
425.000000	86.407	-174.3906
431.000000	86.444	-173.8885
437.000000	86.484	-173.3732
444.000000	86.537	-172.7549
450.000000	86.591	-172.2162
455.000000	86.640	-171.7690
462.000000	86.716	-171.1545
468.000000	86.788	-170.6443
475.000000	86.879	-170.0782
482.000000	86.978	-169.5551
487.000000	87.054	-169.2125
494.000000	87.166	-168.7798
500.000000	87.267	-168.4552
508.000000	87.408	-168.0967
515.000000	87.537	-167.8620
522.000000	87.669	-167.7102
530.000000	87.821	-167.6480
538.000000	87.970	-167.7112
545.000000	88.094	-167.8641
552.000000	88.211	-168.0966
560.000000	88.334	-168.4450
570.000000	88.469	-168.9849
580.000000	88.582	-169.6176
590.000000	88.672	-170.3123
600.000000	88.738	-171.0349
608.000000	88.777	-171.6152
615.000000	88.801	-172.1163
622.000000	88.816	-172.6042
630.000000	88.822	-173.1372
640.000000	88.817	-173.7563
650.000000	88.801	-174.3177
660.000000	88.777	-174.8168
670.000000	88.745	-175.2484
680.000000	88.709	-175.6159
690.000000	88.673	-175.9310
700.000000	88.637	-176.2049
710.000000	88.601	-176.4435
720.000000	88.566	-176.6537
730.000000	88.534	-176.8486
740.000000	88.505	-177.0400
750.000000	88.477	-177.2322
762.000000	88.445	-177.4626
775.000000	88.412	-177.7084
788.000000	88.386	-177.9575
800.000000	88.369	-178.2159
812.000000	88.357	-178.5366
825.000000	88.342	-178.9630
838.000000	88.322	-179.4312
850.000000	88.301	-179.8777
862.000000	88.275	179.6616
875.000000	88.243	179.1635
885.000000	88.219	178.7911
900.000000	88.187	178.2357
912.000000	88.163	177.7737
925.000000	88.141	177.2386
938.000000	88.119	176.6552
950.000000	88.096	176.0721
962.000000	88.068	175.4559
975.000000	88.029	174.7690
988.000000	87.982	174.0813
1000.000000	87.933	173.4606
1015.000000	87.863	172.7162
1030.000000	87.783	172.0114
1044.000000	87.701	171.3983
1060.000000	87.599	170.7657
1075.000000	87.498	170.2415
1090.000000	87.389	169.7816
1106.000000	87.261	169.3749
1120.000000	87.138	169.1188
1138.000000	86.964	168.9863
1150.000000	86.842	169.0534
1172.000000	86.614	169.5343
1180.000000	86.533	169.8203
1206.000000	86.292	171.1225
1220.000000	86.178	172.0565
1241.000000	86.033	173.7761
1250.000000	85.985	174.6227
1265.000000	85.933	176.1374
1280.000000	85.915	177.7149
1315.000000	85.979	-178.6754
1320.000000	85.996	-178.1820
1340.000000	86.076	-176.2790
1360.000000	86.165	-174.4821
1380.000000	86.254	-172.7473
1400.000000	86.338	-171.0207
1430.000000	86.460	-168.4193
1450.000000	86.535	-166.6926
1475.000000	86.612	-164.4991
1500.000000	86.671	-162.1742
1525.000000	86.725	-159.6647
1550.000000	86.787	-156.9675
1575.000000	86.868	-154.1095
1600.000000	86.980	-151.1577
1625.000000	87.131	-148.2342
1650.000000	87.314	-145.4990
1675.000000	87.508	-143.0717
1700.000000	87.684	-140.9529
1725.000000	87.823	-139.0278
1750.000000	87.925	-137.1470
1775.000000	87.997	-135.2045
1800.000000	88.051	-133.1449
1825.000000	88.099	-130.9375
1850.000000	88.159	-128.5887
1875.000000	88.241	-126.1499
1900.000000	88.354	-123.6968
1925.000000	88.503	-121.3146
1950.000000	88.686	-119.0954
1975.000000	88.898	-117.1299
2000.000000	89.123	-115.4852
2030.000000	89.388	-113.9560
2060.000000	89.626	-112.8238
2090.000000	89.829	-111.9208
2120.000000	90.009	-111.1133
2140.000000	90.122	-110.6111
2180.000000	90.343	-109.7570
2200.000000	90.448	-109.4323
2240.000000	90.631	-108.9621
2270.000000	90.738	-108.6752
2300.000000	90.820	-108.3406
2330.000000	90.888	-107.8912
2360.000000	90.954	-107.3122
2400.000000	91.052	-106.3953
2430.000000	91.133	-105.6622
2470.000000	91.246	-104.7055
2500.000000	91.331	-104.0594
2540.000000	91.436	-103.3967
2580.000000	91.524	-103.0437
2620.000000	91.596	-102.9680
2650.000000	91.643	-103.0069
2690.000000	91.704	-103.0672
2720.000000	91.761	-103.0798
2760.000000	91.873	-103.0983
2800.000000	92.044	-103.2885
2850.000000	92.343	-104.1256
2900.000000	92.702	-105.9353
2950.000000	93.073	-108.8537
3000.000000	93.418	-112.8718
3040.000000	93.664	-116.7912
3070.000000	93.828	-120.0737
3110.000000	94.019	-124.8175
3150.000000	94.185	-129.8804
3200.000000	94.368	-136.5094
3250.000000	94.525	-143.3450
3300.000000	94.643	-150.2816
3350.000000	94.699	-157.1762
3400.000000	94.677	-163.8347
3450.000000	94.570	-170.0624
3500.000000	94.374	-175.7098
3550.000000	94.094	179.3275
3600.000000	93.741	175.1342
3650.000000	93.337	171.7813
3700.000000	92.913	169.2987
3750.000000	92.506	167.6388
3820.000000	92.033	166.4301
3870.000000	91.801	166.0948
3950.000000	91.623	165.9318
4000.000000	91.598	165.8773
4060.000000	91.606	165.8660
4120.000000	91.612	166.0405
4180.000000	91.572	166.4413
4250.000000	91.428	167.1068
4310.000000	91.230	167.8938
4370.000000	91.010	169.0463
4440.000000	90.825	170.8882
4500.000000	90.812	172.6285
4550.000000	90.935	173.8780
4620.000000	91.282	174.8640
4680.000000	91.669	174.8459
4750.000000	92.137	174.0592
4820.000000	92.575	172.9326
4870.000000	92.860	172.1413
4940.000000	93.210	171.1924
5000.000000	93.454	170.5612
5080.000000	93.669	170.0227
5150.000000	93.736	169.9600
5220.000000	93.697	170.4425
5300.000000	93.553	171.6691
5380.000000	93.352	173.2661
5450.000000	93.160	174.4730
5520.000000	92.970	175.0229
5600.000000	92.766	174.4031
5700.000000	92.560	171.5306
5800.000000	92.443	166.8825
5900.000000	92.456	161.6706
6000.000000	92.619	156.9725
6080.000000	92.835	153.8449
6150.000000	93.044	151.4385
6220.000000	93.222	149.0981
6300.000000	93.324	146.1979
6400.000000	93.206	141.9450
6500.000000	92.740	137.1452
6600.000000	91.903	132.4741
6700.000000	90.735	128.8222
6800.000000	89.319	126.9442
6900.000000	87.767	127.2725
7000.000000	86.192	129.8836
7100.000000	84.691	134.4977
7200.000000	83.330	140.5016
7300.000000	82.139	147.0897
7400.000000	81.112	153.5123
7500.000000	80.239	159.2502
7620.000000	79.421	164.8186
7750.000000	78.915	168.9357
7880.000000	78.873	170.9370
8000.000000	79.199	170.9126
8120.000000	79.768	169.0519
8250.000000	80.545	164.6760
8380.000000	81.350	157.3908
8500.000000	81.957	148.0416
8620.000000	82.285	136.9958
8750.000000	82.202	125.1931
8850.000000	81.788	118.1086
9000.000000	80.608	114.2642
9120.000000	79.271	119.8040
9250.000000	77.795	136.4699
9380.000000	77.273	162.9008
9500.000000	78.298	-169.5747
9620.000000	80.051	-145.3383
9750.000000	81.820	-125.6670
9880.000000	83.142	-111.2097
10000.000000	83.991	-99.8580
10150.000000	84.725	-85.7155
10300.000000	85.337	-70.3617
10440.000000	86.008	-55.0305
10600.000000	87.021	-37.6673
10750.000000	88.113	-23.6737
10900.000000	89.054	-13.9235
11060.000000	89.534	-8.7848
11200.000000	89.303	-7.0777
11380.000000	88.029	-4.1052
11500.000000	86.644	0.5400
11720.000000	83.392	15.6541
11800.000000	82.107	22.6642
12060.000000	78.176	45.5901
12200.000000	76.406	54.2167
12410.000000	74.108	53.8933
12500.000000	73.211	45.9171
12650.000000	72.057	18.2622
12800.000000	71.969	-27.5581
13150.000000	75.077	-151.2260
13200.000000	75.482	-164.4701
13400.000000	76.657	159.7962
13600.000000	77.408	146.7365
13800.000000	78.190	146.9393
14000.000000	79.220	152.6060
14300.000000	80.930	160.5109
14500.000000	81.787	161.5223
14750.000000	82.161	156.5872
15000.000000	81.558	144.6782
15250.000000	79.927	123.2028
15500.000000	77.313	86.2153
15750.000000	74.082	34.7458
16000.000000	71.693	-12.8274
16250.000000	71.565	-39.5316
16500.000000	72.707	-47.8389
16750.000000	74.083	-48.7164
17000.000000	75.262	-50.3968
17250.000000	75.982	-56.2220
17500.000000	76.052	-66.0099
17750.000000	75.342	-77.0319
18000.000000	73.833	-85.2001
18250.000000	71.637	-87.2823
18500.000000	69.029	-82.9525
18750.000000	66.557	-75.1320
19000.000000	65.101	-68.5463
19250.000000	65.078	-67.9368
19500.000000	65.743	-75.3170
19750.000000	66.323	-87.3210
