* Measurement data measured by REW V5.31.3
* Source: Frequency response averaged data
* Format: Averaged data produced from the rms magnitudes of R R70xa, R R70xa, R R70xa
* Dated: Jan 26, 2025 2:35:57 PM
* REW Settings:
*  C-weighting compensation: Off
*  Target level: 75.0 dB
* Note: Averaged data produced from the rms magnitudes of R R70xa, R R70xa, R R70xa
* Measurement: RMS Average R
* Smoothing: 1/12 octave
* Frequency Step: 1/48 octave
* Start Frequency: 20.000 Hz
*
* Freq(Hz)	SPL(dB)
20.000000	70.566
20.299999	70.790
20.600000	71.004
20.900000	71.207
21.200001	71.403
21.400000	71.531
21.799999	71.778
22.000000	71.898
22.400000	72.129
22.700001	72.293
23.000000	72.449
23.299999	72.599
23.600000	72.747
24.000000	72.944
24.299999	73.095
24.700001	73.299
25.000000	73.451
25.400000	73.648
25.799999	73.837
26.200001	74.019
26.500000	74.154
26.900000	74.336
27.200001	74.476
27.600000	74.664
28.000000	74.851
28.500000	75.078
29.000000	75.292
29.500000	75.493
30.000000	75.685
30.400000	75.834
30.700001	75.944
31.100000	76.091
31.500000	76.240
32.000000	76.426
32.500000	76.610
33.000000	76.784
33.500000	76.945
34.000000	77.091
34.500000	77.224
35.000000	77.349
35.500000	77.469
36.000000	77.585
36.500000	77.699
37.000000	77.810
37.500000	77.919
38.200001	78.069
38.700001	78.174
39.500000	78.338
40.000000	78.437
40.599998	78.552
41.200001	78.660
41.799999	78.760
42.500000	78.868
43.099998	78.952
43.700001	79.028
44.400002	79.106
45.000000	79.164
45.500000	79.207
46.200001	79.259
46.799999	79.300
47.500000	79.345
48.200001	79.391
48.700001	79.426
49.400002	79.478
50.000000	79.523
50.799999	79.584
51.500000	79.637
52.200001	79.689
53.000000	79.751
53.799999	79.821
54.500000	79.888
55.200001	79.963
56.000000	80.052
57.000000	80.164
58.000000	80.266
59.000000	80.351
60.000000	80.417
60.799999	80.455
61.500000	80.480
62.200001	80.498
63.000000	80.512
64.000000	80.522
65.000000	80.527
66.000000	80.529
67.000000	80.532
68.000000	80.537
69.000000	80.547
70.000000	80.564
71.000000	80.587
72.000000	80.618
73.000000	80.656
74.000000	80.701
75.000000	80.754
76.199997	80.825
77.500000	80.907
78.800003	80.991
80.000000	81.065
81.199997	81.134
82.500000	81.204
83.800003	81.267
85.000000	81.321
86.199997	81.371
87.500000	81.421
88.500000	81.455
90.000000	81.501
91.199997	81.533
92.500000	81.564
93.800003	81.590
95.000000	81.611
96.199997	81.629
97.500000	81.645
98.800003	81.657
100.000000	81.667
101.500000	81.676
103.000000	81.684
104.400002	81.690
106.000000	81.697
107.500000	81.703
109.000000	81.707
110.599998	81.711
112.000000	81.712
113.800003	81.711
115.000000	81.708
117.199997	81.699
118.000000	81.694
120.599998	81.675
122.000000	81.662
124.099998	81.640
125.000000	81.630
126.500000	81.614
128.000000	81.597
131.500000	81.561
132.000000	81.555
134.000000	81.535
136.000000	81.516
138.000000	81.497
140.000000	81.479
143.000000	81.453
145.000000	81.435
147.500000	81.413
150.000000	81.389
152.500000	81.363
155.000000	81.335
157.500000	81.305
160.000000	81.274
162.500000	81.242
165.000000	81.210
167.500000	81.178
170.000000	81.145
172.500000	81.111
175.000000	81.076
177.500000	81.038
180.000000	80.999
182.500000	80.957
185.000000	80.913
187.500000	80.868
190.000000	80.822
192.500000	80.776
195.000000	80.731
197.500000	80.688
200.000000	80.646
203.000000	80.599
206.000000	80.557
209.000000	80.517
212.000000	80.480
214.000000	80.455
218.000000	80.406
220.000000	80.381
224.000000	80.329
227.000000	80.290
230.000000	80.249
233.000000	80.208
236.000000	80.168
240.000000	80.113
243.000000	80.073
247.000000	80.018
250.000000	79.976
254.000000	79.918
258.000000	79.859
262.000000	79.797
265.000000	79.750
269.000000	79.687
272.000000	79.639
276.000000	79.574
280.000000	79.509
285.000000	79.427
290.000000	79.343
295.000000	79.257
300.000000	79.171
304.000000	79.101
307.000000	79.048
311.000000	78.979
315.000000	78.909
320.000000	78.822
325.000000	78.735
330.000000	78.648
335.000000	78.562
340.000000	78.475
345.000000	78.388
350.000000	78.302
355.000000	78.216
360.000000	78.130
365.000000	78.044
370.000000	77.960
375.000000	77.877
382.000000	77.765
387.000000	77.690
395.000000	77.580
400.000000	77.520
406.000000	77.461
412.000000	77.416
418.000000	77.387
425.000000	77.373
431.000000	77.378
437.000000	77.400
444.000000	77.445
450.000000	77.500
455.000000	77.556
462.000000	77.651
468.000000	77.744
475.000000	77.866
482.000000	77.999
487.000000	78.099
494.000000	78.244
500.000000	78.370
508.000000	78.541
515.000000	78.688
522.000000	78.833
530.000000	78.992
538.000000	79.141
545.000000	79.262
552.000000	79.372
560.000000	79.485
570.000000	79.607
580.000000	79.710
590.000000	79.797
600.000000	79.869
608.000000	79.916
615.000000	79.952
622.000000	79.982
630.000000	80.010
640.000000	80.039
650.000000	80.063
660.000000	80.087
670.000000	80.114
680.000000	80.145
690.000000	80.184
700.000000	80.230
710.000000	80.282
720.000000	80.341
730.000000	80.406
740.000000	80.473
750.000000	80.542
762.000000	80.624
775.000000	80.707
788.000000	80.783
800.000000	80.846
812.000000	80.902
825.000000	80.958
838.000000	81.010
850.000000	81.058
862.000000	81.108
875.000000	81.164
885.000000	81.212
900.000000	81.289
912.000000	81.356
925.000000	81.434
938.000000	81.517
950.000000	81.598
962.000000	81.682
975.000000	81.778
988.000000	81.878
1000.000000	81.974
1015.000000	82.095
1030.000000	82.218
1044.000000	82.332
1060.000000	82.460
1075.000000	82.575
1090.000000	82.685
1106.000000	82.797
1120.000000	82.890
1138.000000	83.004
1150.000000	83.078
1172.000000	83.206
1180.000000	83.250
1206.000000	83.384
1220.000000	83.449
1241.000000	83.538
1250.000000	83.572
1265.000000	83.624
1280.000000	83.668
1315.000000	83.740
1320.000000	83.747
1340.000000	83.765
1360.000000	83.773
1380.000000	83.775
1400.000000	83.778
1430.000000	83.798
1450.000000	83.828
1475.000000	83.890
1500.000000	83.977
1525.000000	84.084
1550.000000	84.203
1575.000000	84.326
1600.000000	84.446
1625.000000	84.558
1650.000000	84.664
1675.000000	84.765
1700.000000	84.865
1725.000000	84.965
1750.000000	85.065
1775.000000	85.164
1800.000000	85.258
1825.000000	85.346
1850.000000	85.427
1875.000000	85.502
1900.000000	85.572
1925.000000	85.640
1950.000000	85.707
1975.000000	85.774
2000.000000	85.841
2030.000000	85.922
2060.000000	86.002
2090.000000	86.079
2120.000000	86.157
2140.000000	86.210
2180.000000	86.326
2200.000000	86.392
2240.000000	86.547
2270.000000	86.687
2300.000000	86.850
2330.000000	87.036
2360.000000	87.242
2400.000000	87.545
2430.000000	87.786
2470.000000	88.114
2500.000000	88.357
2540.000000	88.665
2580.000000	88.943
2620.000000	89.183
2650.000000	89.334
2690.000000	89.493
2720.000000	89.580
2760.000000	89.652
2800.000000	89.681
2850.000000	89.686
2900.000000	89.720
2950.000000	89.858
3000.000000	90.136
3040.000000	90.445
3070.000000	90.706
3110.000000	91.068
3150.000000	91.419
3200.000000	91.816
3250.000000	92.145
3300.000000	92.396
3350.000000	92.568
3400.000000	92.667
3450.000000	92.696
3500.000000	92.658
3550.000000	92.551
3600.000000	92.372
3650.000000	92.116
3700.000000	91.778
3750.000000	91.355
3820.000000	90.610
3870.000000	89.965
3950.000000	88.739
4000.000000	87.869
4060.000000	86.768
4120.000000	85.691
4180.000000	84.770
4250.000000	84.081
4310.000000	83.894
4370.000000	84.028
4440.000000	84.422
4500.000000	84.833
4550.000000	85.171
4620.000000	85.593
4680.000000	85.892
4750.000000	86.160
4820.000000	86.341
4870.000000	86.419
4940.000000	86.465
5000.000000	86.454
5080.000000	86.387
5150.000000	86.302
5220.000000	86.214
5300.000000	86.137
5380.000000	86.115
5450.000000	86.158
5520.000000	86.271
5600.000000	86.488
5700.000000	86.877
5800.000000	87.353
5900.000000	87.853
6000.000000	88.302
6080.000000	88.580
6150.000000	88.739
6220.000000	88.805
6300.000000	88.755
6400.000000	88.500
6500.000000	88.043
6600.000000	87.415
6700.000000	86.664
6800.000000	85.850
6900.000000	85.035
7000.000000	84.282
7100.000000	83.634
7200.000000	83.115
7300.000000	82.719
7400.000000	82.422
7500.000000	82.197
7620.000000	81.997
7750.000000	81.875
7880.000000	81.903
8000.000000	82.113
8120.000000	82.513
8250.000000	83.106
8380.000000	83.755
8500.000000	84.293
8620.000000	84.683
8750.000000	84.862
8850.000000	84.795
9000.000000	84.337
9120.000000	83.664
9250.000000	82.657
9380.000000	81.403
9500.000000	80.082
9620.000000	78.675
9750.000000	77.177
9880.000000	75.893
10000.000000	75.081
10150.000000	74.692
10300.000000	74.868
10440.000000	75.293
10600.000000	75.857
10750.000000	76.361
10900.000000	76.820
11060.000000	77.275
11200.000000	77.668
11380.000000	78.202
11500.000000	78.598
11720.000000	79.459
11800.000000	79.825
12060.000000	81.201
12200.000000	82.019
12410.000000	83.239
12500.000000	83.727
12650.000000	84.456
12800.000000	85.048
13150.000000	85.751
13200.000000	85.768
13400.000000	85.626
13600.000000	85.166
13800.000000	84.422
14000.000000	83.437
14300.000000	81.612
14500.000000	80.232
14750.000000	78.411
15000.000000	76.608
15250.000000	75.052
15500.000000	74.088
15750.000000	73.989
16000.000000	74.628
16250.000000	75.605
16500.000000	76.589
16750.000000	77.403
17000.000000	77.972
17250.000000	78.266
17500.000000	78.287
17750.000000	78.060
18000.000000	77.629
18250.000000	77.053
18500.000000	76.402
18750.000000	75.744
19000.000000	75.138
19250.000000	74.629
19500.000000	74.242
19750.000000	73.987
20000.000000	73.861
