* Measurement data measured by REW V5.31.3
* Source: Frequency response averaged data
* Format: Averaged data produced from the rms magnitudes of L R70xa, L R70xa, L R70xa
* Dated: Jan 26, 2025 2:35:38 PM
* REW Settings:
*  C-weighting compensation: Off
*  Target level: 75.0 dB
* Note: Averaged data produced from the rms magnitudes of L R70xa, L R70xa, L R70xa
* Measurement: RMS Average L
* Smoothing: 1/12 octave
* Frequency Step: 1/48 octave
* Start Frequency: 20.000 Hz
*
* Freq(Hz)	SPL(dB)
20.000000	73.020
20.299999	73.213
20.600000	73.403
20.900000	73.589
21.200001	73.766
21.400000	73.880
21.799999	74.095
22.000000	74.198
22.400000	74.399
22.700001	74.549
23.000000	74.702
23.299999	74.859
23.600000	75.022
24.000000	75.243
24.299999	75.408
24.700001	75.622
25.000000	75.773
25.400000	75.962
25.799999	76.143
26.200001	76.328
26.500000	76.476
26.900000	76.687
27.200001	76.853
27.600000	77.072
28.000000	77.270
28.500000	77.466
29.000000	77.598
29.500000	77.680
30.000000	77.740
30.400000	77.791
30.700001	77.836
31.100000	77.907
31.500000	77.991
32.000000	78.108
32.500000	78.233
33.000000	78.362
33.500000	78.492
34.000000	78.622
34.500000	78.750
35.000000	78.875
35.500000	78.995
36.000000	79.109
36.500000	79.218
37.000000	79.320
37.500000	79.418
38.200001	79.545
38.700001	79.632
39.500000	79.763
40.000000	79.842
40.599998	79.935
41.200001	80.026
41.799999	80.118
42.500000	80.227
43.099998	80.320
43.700001	80.410
44.400002	80.508
45.000000	80.582
45.500000	80.635
46.200001	80.697
46.799999	80.740
47.500000	80.782
48.200001	80.816
48.700001	80.838
49.400002	80.871
50.000000	80.902
50.799999	80.953
51.500000	81.008
52.200001	81.073
53.000000	81.160
53.799999	81.259
54.500000	81.351
55.200001	81.446
56.000000	81.552
57.000000	81.666
58.000000	81.748
59.000000	81.791
60.000000	81.794
60.799999	81.770
61.500000	81.734
62.200001	81.684
63.000000	81.615
64.000000	81.517
65.000000	81.416
66.000000	81.328
67.000000	81.265
68.000000	81.238
69.000000	81.251
70.000000	81.304
71.000000	81.390
72.000000	81.501
73.000000	81.625
74.000000	81.752
75.000000	81.874
76.199997	82.009
77.500000	82.134
78.800003	82.239
80.000000	82.319
81.199997	82.385
82.500000	82.446
83.800003	82.498
85.000000	82.540
86.199997	82.577
87.500000	82.612
88.500000	82.636
90.000000	82.666
91.199997	82.686
92.500000	82.703
93.800003	82.715
95.000000	82.722
96.199997	82.726
97.500000	82.727
98.800003	82.726
100.000000	82.724
101.500000	82.720
103.000000	82.714
104.400002	82.707
106.000000	82.697
107.500000	82.685
109.000000	82.673
110.599998	82.660
112.000000	82.649
113.800003	82.637
115.000000	82.630
117.199997	82.621
118.000000	82.619
120.599998	82.610
122.000000	82.605
124.099998	82.596
125.000000	82.593
126.500000	82.586
128.000000	82.579
131.500000	82.558
132.000000	82.554
134.000000	82.537
136.000000	82.518
138.000000	82.496
140.000000	82.473
143.000000	82.437
145.000000	82.413
147.500000	82.382
150.000000	82.352
152.500000	82.323
155.000000	82.293
157.500000	82.264
160.000000	82.233
162.500000	82.202
165.000000	82.170
167.500000	82.138
170.000000	82.103
172.500000	82.067
175.000000	82.029
177.500000	81.990
180.000000	81.950
182.500000	81.909
185.000000	81.869
187.500000	81.829
190.000000	81.791
192.500000	81.754
195.000000	81.719
197.500000	81.683
200.000000	81.647
203.000000	81.603
206.000000	81.557
209.000000	81.509
212.000000	81.460
214.000000	81.428
218.000000	81.363
220.000000	81.331
224.000000	81.269
227.000000	81.224
230.000000	81.179
233.000000	81.136
236.000000	81.092
240.000000	81.033
243.000000	80.989
247.000000	80.929
250.000000	80.884
254.000000	80.823
258.000000	80.764
262.000000	80.706
265.000000	80.663
269.000000	80.606
272.000000	80.565
276.000000	80.509
280.000000	80.454
285.000000	80.384
290.000000	80.314
295.000000	80.242
300.000000	80.170
304.000000	80.111
307.000000	80.067
311.000000	80.008
315.000000	79.948
320.000000	79.872
325.000000	79.797
330.000000	79.721
335.000000	79.646
340.000000	79.572
345.000000	79.497
350.000000	79.423
355.000000	79.349
360.000000	79.275
365.000000	79.202
370.000000	79.129
375.000000	79.056
382.000000	78.955
387.000000	78.883
395.000000	78.769
400.000000	78.698
406.000000	78.615
412.000000	78.532
418.000000	78.453
425.000000	78.363
431.000000	78.291
437.000000	78.223
444.000000	78.149
450.000000	78.090
455.000000	78.043
462.000000	77.982
468.000000	77.934
475.000000	77.885
482.000000	77.846
487.000000	77.827
494.000000	77.815
500.000000	77.819
508.000000	77.846
515.000000	77.890
522.000000	77.951
530.000000	78.040
538.000000	78.147
545.000000	78.253
552.000000	78.370
560.000000	78.515
570.000000	78.709
580.000000	78.913
590.000000	79.122
600.000000	79.333
608.000000	79.502
615.000000	79.648
622.000000	79.793
630.000000	79.955
640.000000	80.153
650.000000	80.345
660.000000	80.528
670.000000	80.702
680.000000	80.864
690.000000	81.015
700.000000	81.154
710.000000	81.280
720.000000	81.394
730.000000	81.495
740.000000	81.584
750.000000	81.662
762.000000	81.740
775.000000	81.807
788.000000	81.859
800.000000	81.896
812.000000	81.927
825.000000	81.955
838.000000	81.982
850.000000	82.011
862.000000	82.048
875.000000	82.100
885.000000	82.149
900.000000	82.237
912.000000	82.317
925.000000	82.407
938.000000	82.499
950.000000	82.583
962.000000	82.663
975.000000	82.747
988.000000	82.827
1000.000000	82.897
1015.000000	82.983
1030.000000	83.067
1044.000000	83.146
1060.000000	83.239
1075.000000	83.327
1090.000000	83.417
1106.000000	83.514
1120.000000	83.597
1138.000000	83.700
1150.000000	83.766
1172.000000	83.876
1180.000000	83.912
1206.000000	84.013
1220.000000	84.059
1241.000000	84.115
1250.000000	84.136
1265.000000	84.165
1280.000000	84.190
1315.000000	84.236
1320.000000	84.242
1340.000000	84.266
1360.000000	84.292
1380.000000	84.320
1400.000000	84.351
1430.000000	84.398
1450.000000	84.429
1475.000000	84.467
1500.000000	84.506
1525.000000	84.547
1550.000000	84.593
1575.000000	84.644
1600.000000	84.700
1625.000000	84.762
1650.000000	84.829
1675.000000	84.897
1700.000000	84.964
1725.000000	85.025
1750.000000	85.081
1775.000000	85.128
1800.000000	85.169
1825.000000	85.207
1850.000000	85.245
1875.000000	85.290
1900.000000	85.345
1925.000000	85.411
1950.000000	85.488
1975.000000	85.574
2000.000000	85.668
2030.000000	85.789
2060.000000	85.917
2090.000000	86.055
2120.000000	86.202
2140.000000	86.308
2180.000000	86.538
2200.000000	86.664
2240.000000	86.936
2270.000000	87.154
2300.000000	87.382
2330.000000	87.613
2360.000000	87.843
2400.000000	88.144
2430.000000	88.363
2470.000000	88.643
2500.000000	88.842
2540.000000	89.086
2580.000000	89.297
2620.000000	89.462
2650.000000	89.551
2690.000000	89.621
2720.000000	89.643
2760.000000	89.649
2800.000000	89.664
2850.000000	89.764
2900.000000	90.010
2950.000000	90.400
3000.000000	90.875
3040.000000	91.273
3070.000000	91.566
3110.000000	91.937
3150.000000	92.277
3200.000000	92.648
3250.000000	92.950
3300.000000	93.180
3350.000000	93.340
3400.000000	93.433
3450.000000	93.461
3500.000000	93.424
3550.000000	93.317
3600.000000	93.134
3650.000000	92.869
3700.000000	92.511
3750.000000	92.053
3820.000000	91.233
3870.000000	90.515
3950.000000	89.152
4000.000000	88.191
4060.000000	86.982
4120.000000	85.802
4180.000000	84.782
4250.000000	83.970
4310.000000	83.669
4370.000000	83.688
4440.000000	83.965
4500.000000	84.298
4550.000000	84.585
4620.000000	84.952
4680.000000	85.211
4750.000000	85.438
4820.000000	85.583
4870.000000	85.641
4940.000000	85.667
5000.000000	85.647
5080.000000	85.582
5150.000000	85.509
5220.000000	85.441
5300.000000	85.394
5380.000000	85.402
5450.000000	85.470
5520.000000	85.603
5600.000000	85.834
5700.000000	86.228
5800.000000	86.702
5900.000000	87.203
6000.000000	87.670
6080.000000	87.981
6150.000000	88.185
6220.000000	88.310
6300.000000	88.347
6400.000000	88.226
6500.000000	87.930
6600.000000	87.491
6700.000000	86.955
6800.000000	86.381
6900.000000	85.824
7000.000000	85.326
7100.000000	84.908
7200.000000	84.566
7300.000000	84.282
7400.000000	84.032
7500.000000	83.795
7620.000000	83.510
7750.000000	83.205
7880.000000	82.945
8000.000000	82.798
8120.000000	82.786
8250.000000	82.930
8380.000000	83.181
8500.000000	83.423
8620.000000	83.586
8750.000000	83.589
8850.000000	83.427
9000.000000	82.876
9120.000000	82.167
9250.000000	81.157
9380.000000	79.956
9500.000000	78.768
9620.000000	77.629
9750.000000	76.632
9880.000000	76.047
10000.000000	75.904
10150.000000	76.102
10300.000000	76.462
10440.000000	76.763
10600.000000	76.965
10750.000000	76.993
10900.000000	76.894
11060.000000	76.720
11200.000000	76.601
11380.000000	76.653
11500.000000	76.898
11720.000000	77.862
11800.000000	78.355
12060.000000	80.229
12200.000000	81.272
12410.000000	82.711
12500.000000	83.252
12650.000000	84.027
12800.000000	84.627
13150.000000	85.298
13200.000000	85.311
13400.000000	85.164
13600.000000	84.732
13800.000000	84.061
14000.000000	83.214
14300.000000	81.773
14500.000000	80.824
14750.000000	79.815
15000.000000	79.129
15250.000000	78.792
15500.000000	78.725
15750.000000	78.825
16000.000000	79.024
16250.000000	79.284
16500.000000	79.562
16750.000000	79.795
17000.000000	79.913
17250.000000	79.858
17500.000000	79.601
17750.000000	79.143
18000.000000	78.514
18250.000000	77.764
18500.000000	76.956
18750.000000	76.153
19000.000000	75.411
19250.000000	74.771
19500.000000	74.265
19750.000000	73.916
20000.000000	73.738
