* Measurement data measured by REW V5.31.1
* Source: Frequency response averaged data
* Format: Averaged data produced from the rms magnitudes of L ATH AWAS, L ATH AWAS, L ATH AWAS
* Dated: Jun 30, 2024 11:55:32 AM
* REW Settings:
*  C-weighting compensation: Off
*  Target level: 75.0 dB
* Note: Averaged data produced from the rms magnitudes of L ATH AWAS, L ATH AWAS, L ATH AWAS
* Measurement: RMS Average L
* Smoothing: 1/12 octave
* Frequency Step: 1/48 octave
* Start Frequency: 20.000 Hz
*
* Freq(Hz)	SPL(dB)
20.000000	71.010
20.299999	71.241
20.600000	71.479
20.900000	71.734
21.200001	72.011
21.400000	72.204
21.799999	72.592
22.000000	72.776
22.400000	73.103
22.700001	73.299
23.000000	73.453
23.299999	73.575
23.600000	73.681
24.000000	73.830
24.299999	73.969
24.700001	74.204
25.000000	74.413
25.400000	74.714
25.799999	75.007
26.200001	75.269
26.500000	75.440
26.900000	75.641
27.200001	75.783
27.600000	75.980
28.000000	76.202
28.500000	76.522
29.000000	76.863
29.500000	77.190
30.000000	77.477
30.400000	77.673
30.700001	77.803
31.100000	77.960
31.500000	78.105
32.000000	78.280
32.500000	78.462
33.000000	78.660
33.500000	78.876
34.000000	79.098
34.500000	79.314
35.000000	79.517
35.500000	79.708
36.000000	79.892
36.500000	80.070
37.000000	80.243
37.500000	80.413
38.200001	80.647
38.700001	80.815
39.500000	81.081
40.000000	81.235
40.599998	81.398
41.200001	81.534
41.799999	81.654
42.500000	81.787
43.099998	81.893
43.700001	81.981
44.400002	82.053
45.000000	82.094
45.500000	82.121
46.200001	82.152
46.799999	82.171
47.500000	82.190
48.200001	82.215
48.700001	82.247
49.400002	82.322
50.000000	82.422
50.799999	82.615
51.500000	82.835
52.200001	83.087
53.000000	83.392
53.799999	83.695
54.500000	83.943
55.200001	84.167
56.000000	84.393
57.000000	84.638
58.000000	84.845
59.000000	85.011
60.000000	85.125
60.799999	85.176
61.500000	85.194
62.200001	85.191
63.000000	85.163
64.000000	85.104
65.000000	85.044
66.000000	85.014
67.000000	85.038
68.000000	85.118
69.000000	85.227
70.000000	85.326
71.000000	85.390
72.000000	85.416
73.000000	85.425
74.000000	85.446
75.000000	85.504
76.199997	85.634
77.500000	85.833
78.800003	86.061
80.000000	86.269
81.199997	86.457
82.500000	86.631
83.800003	86.767
85.000000	86.853
86.199997	86.906
87.500000	86.949
88.500000	86.985
90.000000	87.049
91.199997	87.110
92.500000	87.184
93.800003	87.260
95.000000	87.327
96.199997	87.386
97.500000	87.440
98.800003	87.483
100.000000	87.513
101.500000	87.538
103.000000	87.555
104.400002	87.569
106.000000	87.581
107.500000	87.587
109.000000	87.591
110.599998	87.611
112.000000	87.644
113.800003	87.670
115.000000	87.659
117.199997	87.603
118.000000	87.585
120.599998	87.551
122.000000	87.526
124.099998	87.464
125.000000	87.432
126.500000	87.374
128.000000	87.303
131.500000	87.082
132.000000	87.043
134.000000	86.876
136.000000	86.708
138.000000	86.569
140.000000	86.468
143.000000	86.357
145.000000	86.283
147.500000	86.169
150.000000	86.030
152.500000	85.871
155.000000	85.717
157.500000	85.609
160.000000	85.533
162.500000	85.431
165.000000	85.296
167.500000	85.169
170.000000	85.065
172.500000	84.947
175.000000	84.806
177.500000	84.666
180.000000	84.551
182.500000	84.469
185.000000	84.396
187.500000	84.263
190.000000	84.041
192.500000	83.804
195.000000	83.636
197.500000	83.528
200.000000	83.410
203.000000	83.229
206.000000	83.089
209.000000	83.059
212.000000	83.125
214.000000	83.196
218.000000	83.359
220.000000	83.429
224.000000	83.513
227.000000	83.529
230.000000	83.537
233.000000	83.599
236.000000	83.724
240.000000	83.891
243.000000	83.981
247.000000	84.107
250.000000	84.246
254.000000	84.483
258.000000	84.771
262.000000	85.062
265.000000	85.229
269.000000	85.375
272.000000	85.466
276.000000	85.623
280.000000	85.836
285.000000	86.149
290.000000	86.484
295.000000	86.760
300.000000	86.926
304.000000	87.017
307.000000	87.076
311.000000	87.145
315.000000	87.208
320.000000	87.288
325.000000	87.360
330.000000	87.425
335.000000	87.485
340.000000	87.539
345.000000	87.581
350.000000	87.612
355.000000	87.626
360.000000	87.621
365.000000	87.603
370.000000	87.574
375.000000	87.536
382.000000	87.480
387.000000	87.445
395.000000	87.393
400.000000	87.369
406.000000	87.351
412.000000	87.340
418.000000	87.323
425.000000	87.284
431.000000	87.235
437.000000	87.188
444.000000	87.157
450.000000	87.148
455.000000	87.145
462.000000	87.146
468.000000	87.160
475.000000	87.192
482.000000	87.233
487.000000	87.260
494.000000	87.276
500.000000	87.264
508.000000	87.247
515.000000	87.249
522.000000	87.257
530.000000	87.256
538.000000	87.235
545.000000	87.202
552.000000	87.162
560.000000	87.108
570.000000	87.031
580.000000	86.944
590.000000	86.855
600.000000	86.786
608.000000	86.761
615.000000	86.762
622.000000	86.781
630.000000	86.814
640.000000	86.855
650.000000	86.881
660.000000	86.900
670.000000	86.911
680.000000	86.877
690.000000	86.794
700.000000	86.697
710.000000	86.608
720.000000	86.530
730.000000	86.463
740.000000	86.421
750.000000	86.435
762.000000	86.537
775.000000	86.705
788.000000	86.867
800.000000	86.985
812.000000	87.078
825.000000	87.170
838.000000	87.251
850.000000	87.299
862.000000	87.324
875.000000	87.345
885.000000	87.369
900.000000	87.425
912.000000	87.488
925.000000	87.564
938.000000	87.638
950.000000	87.702
962.000000	87.761
975.000000	87.813
988.000000	87.853
1000.000000	87.882
1015.000000	87.916
1030.000000	87.954
1044.000000	87.995
1060.000000	88.050
1075.000000	88.106
1090.000000	88.163
1106.000000	88.221
1120.000000	88.268
1138.000000	88.321
1150.000000	88.353
1172.000000	88.411
1180.000000	88.433
1206.000000	88.517
1220.000000	88.568
1241.000000	88.647
1250.000000	88.680
1265.000000	88.738
1280.000000	88.800
1315.000000	88.971
1320.000000	89.000
1340.000000	89.120
1360.000000	89.248
1380.000000	89.381
1400.000000	89.524
1430.000000	89.764
1450.000000	89.933
1475.000000	90.138
1500.000000	90.333
1525.000000	90.521
1550.000000	90.710
1575.000000	90.909
1600.000000	91.131
1625.000000	91.376
1650.000000	91.599
1675.000000	91.740
1700.000000	91.793
1725.000000	91.798
1750.000000	91.792
1775.000000	91.782
1800.000000	91.767
1825.000000	91.739
1850.000000	91.693
1875.000000	91.630
1900.000000	91.548
1925.000000	91.450
1950.000000	91.333
1975.000000	91.197
2000.000000	91.041
2030.000000	90.830
2060.000000	90.596
2090.000000	90.339
2120.000000	90.059
2140.000000	89.858
2180.000000	89.435
2200.000000	89.226
2240.000000	88.861
2270.000000	88.670
2300.000000	88.574
2330.000000	88.581
2360.000000	88.693
2400.000000	88.995
2430.000000	89.315
2470.000000	89.826
2500.000000	90.241
2540.000000	90.805
2580.000000	91.360
2620.000000	91.904
2650.000000	92.307
2690.000000	92.834
2720.000000	93.213
2760.000000	93.693
2800.000000	94.145
2850.000000	94.677
2900.000000	95.169
2950.000000	95.611
3000.000000	95.993
3040.000000	96.260
3070.000000	96.443
3110.000000	96.673
3150.000000	96.892
3200.000000	97.145
3250.000000	97.360
3300.000000	97.525
3350.000000	97.649
3400.000000	97.723
3450.000000	97.719
3500.000000	97.621
3550.000000	97.440
3600.000000	97.207
3650.000000	96.956
3700.000000	96.722
3750.000000	96.530
3820.000000	96.366
3870.000000	96.335
3950.000000	96.425
4000.000000	96.537
4060.000000	96.673
4120.000000	96.744
4180.000000	96.709
4250.000000	96.516
4310.000000	96.229
4370.000000	95.861
4440.000000	95.382
4500.000000	94.963
4550.000000	94.614
4620.000000	94.120
4680.000000	93.689
4750.000000	93.193
4820.000000	92.736
4870.000000	92.452
4940.000000	92.130
5000.000000	91.927
5080.000000	91.755
5150.000000	91.695
5220.000000	91.720
5300.000000	91.851
5380.000000	92.077
5450.000000	92.320
5520.000000	92.563
5600.000000	92.793
5700.000000	92.914
5800.000000	92.730
5900.000000	92.124
6000.000000	91.005
6080.000000	89.712
6150.000000	88.300
6220.000000	86.657
6300.000000	84.583
6400.000000	82.042
6500.000000	80.497
6600.000000	80.803
6700.000000	82.256
6800.000000	83.848
6900.000000	85.173
7000.000000	86.124
7100.000000	86.677
7200.000000	86.879
7300.000000	86.857
7400.000000	86.801
7500.000000	86.885
7620.000000	87.280
7750.000000	87.977
7880.000000	88.663
8000.000000	89.008
8120.000000	88.897
8250.000000	88.220
8380.000000	87.057
8500.000000	85.650
8620.000000	83.990
8750.000000	82.064
8850.000000	80.883
9000.000000	80.750
9120.000000	81.896
9250.000000	83.240
9380.000000	84.120
9500.000000	84.462
9620.000000	84.459
9750.000000	84.224
9880.000000	83.896
10000.000000	83.609
10150.000000	83.378
10300.000000	83.381
10440.000000	83.654
10600.000000	84.293
10750.000000	85.129
10900.000000	86.055
11060.000000	86.926
11200.000000	87.362
11380.000000	87.169
11500.000000	86.485
11720.000000	84.213
11800.000000	83.184
12060.000000	80.431
12200.000000	80.271
12410.000000	81.576
12500.000000	82.261
12650.000000	83.181
12800.000000	83.671
13150.000000	83.206
13200.000000	83.029
13400.000000	82.272
13600.000000	81.526
13800.000000	81.085
14000.000000	81.640
14300.000000	84.621
14500.000000	87.427
14750.000000	91.037
15000.000000	94.035
15250.000000	95.925
15500.000000	96.448
15750.000000	95.576
16000.000000	93.595
16250.000000	91.152
16500.000000	89.211
16750.000000	88.414
17000.000000	88.267
17250.000000	87.926
17500.000000	87.113
17750.000000	85.961
18000.000000	84.703
18250.000000	83.965
18500.000000	84.596
18750.000000	86.273
19000.000000	88.002
19250.000000	89.218
19500.000000	89.768
19750.000000	89.781
