* Measurement data measured by REW V5.31.1
* Source: Frequency response averaged data
* Format: Averaged data produced from the rms magnitudes of R ATH AWAS, R ATH AWAS, R ATH AWAS, R ATH AWAS
* Dated: Jun 30, 2024 11:55:50 AM
* REW Settings:
*  C-weighting compensation: Off
*  Target level: 75.0 dB
* Note: Averaged data produced from the rms magnitudes of R ATH AWAS, R ATH AWAS, R ATH AWAS, R ATH AWAS
* Measurement: RMS Average R
* Smoothing: 1/12 octave
* Frequency Step: 1/48 octave
* Start Frequency: 20.000 Hz
*
* Freq(Hz)	SPL(dB)
20.000000	71.593
20.299999	71.823
20.600000	72.058
20.900000	72.298
21.200001	72.537
21.400000	72.696
21.799999	73.010
22.000000	73.167
22.400000	73.487
22.700001	73.731
23.000000	73.977
23.299999	74.222
23.600000	74.460
24.000000	74.766
24.299999	74.985
24.700001	75.263
25.000000	75.461
25.400000	75.713
25.799999	75.953
26.200001	76.188
26.500000	76.365
26.900000	76.608
27.200001	76.794
27.600000	77.043
28.000000	77.282
28.500000	77.556
29.000000	77.807
29.500000	78.051
30.000000	78.304
30.400000	78.512
30.700001	78.670
31.100000	78.877
31.500000	79.077
32.000000	79.319
32.500000	79.553
33.000000	79.784
33.500000	80.014
34.000000	80.242
34.500000	80.464
35.000000	80.675
35.500000	80.869
36.000000	81.049
36.500000	81.220
37.000000	81.393
37.500000	81.571
38.200001	81.822
38.700001	81.988
39.500000	82.200
40.000000	82.296
40.599998	82.388
41.200001	82.471
41.799999	82.555
42.500000	82.649
43.099998	82.713
43.700001	82.759
44.400002	82.793
45.000000	82.813
45.500000	82.830
46.200001	82.879
46.799999	82.966
47.500000	83.142
48.200001	83.394
48.700001	83.606
49.400002	83.926
50.000000	84.202
50.799999	84.555
51.500000	84.841
52.200001	85.104
53.000000	85.377
53.799999	85.614
54.500000	85.794
55.200001	85.957
56.000000	86.127
57.000000	86.310
58.000000	86.451
59.000000	86.557
60.000000	86.635
60.799999	86.677
61.500000	86.699
62.200001	86.709
63.000000	86.706
64.000000	86.688
65.000000	86.654
66.000000	86.617
67.000000	86.591
68.000000	86.592
69.000000	86.638
70.000000	86.740
71.000000	86.886
72.000000	87.045
73.000000	87.188
74.000000	87.295
75.000000	87.364
76.199997	87.406
77.500000	87.415
78.800003	87.408
80.000000	87.401
81.199997	87.412
82.500000	87.456
83.800003	87.554
85.000000	87.709
86.199997	87.898
87.500000	88.082
88.500000	88.187
90.000000	88.295
91.199997	88.363
92.500000	88.442
93.800003	88.535
95.000000	88.623
96.199997	88.701
97.500000	88.771
98.800003	88.829
100.000000	88.873
101.500000	88.916
103.000000	88.953
104.400002	88.989
106.000000	89.030
107.500000	89.053
109.000000	89.064
110.599998	89.070
112.000000	89.066
113.800003	89.049
115.000000	89.031
117.199997	88.968
118.000000	88.934
120.599998	88.819
122.000000	88.763
124.099998	88.671
125.000000	88.618
126.500000	88.498
128.000000	88.326
131.500000	87.772
132.000000	87.691
134.000000	87.402
136.000000	87.207
138.000000	87.121
140.000000	87.125
143.000000	87.247
145.000000	87.344
147.500000	87.410
150.000000	87.403
152.500000	87.350
155.000000	87.278
157.500000	87.185
160.000000	87.067
162.500000	86.936
165.000000	86.803
167.500000	86.641
170.000000	86.433
172.500000	86.232
175.000000	86.095
177.500000	86.008
180.000000	85.913
182.500000	85.760
185.000000	85.547
187.500000	85.330
190.000000	85.168
192.500000	85.061
195.000000	84.966
197.500000	84.831
200.000000	84.617
203.000000	84.259
206.000000	83.889
209.000000	83.604
212.000000	83.386
214.000000	83.236
218.000000	82.889
220.000000	82.720
224.000000	82.468
227.000000	82.354
230.000000	82.255
233.000000	82.141
236.000000	82.044
240.000000	82.030
243.000000	82.124
247.000000	82.348
250.000000	82.545
254.000000	82.826
258.000000	83.121
262.000000	83.462
265.000000	83.751
269.000000	84.136
272.000000	84.414
276.000000	84.799
280.000000	85.205
285.000000	85.652
290.000000	85.984
295.000000	86.307
300.000000	86.699
304.000000	87.017
307.000000	87.237
311.000000	87.481
315.000000	87.656
320.000000	87.807
325.000000	87.896
330.000000	87.937
335.000000	87.967
340.000000	87.996
345.000000	88.023
350.000000	88.033
355.000000	88.007
360.000000	87.957
365.000000	87.901
370.000000	87.850
375.000000	87.809
382.000000	87.752
387.000000	87.709
395.000000	87.652
400.000000	87.615
406.000000	87.576
412.000000	87.540
418.000000	87.490
425.000000	87.433
431.000000	87.406
437.000000	87.396
444.000000	87.387
450.000000	87.376
455.000000	87.368
462.000000	87.371
468.000000	87.384
475.000000	87.403
482.000000	87.432
487.000000	87.460
494.000000	87.500
500.000000	87.534
508.000000	87.581
515.000000	87.624
522.000000	87.671
530.000000	87.718
538.000000	87.738
545.000000	87.742
552.000000	87.742
560.000000	87.728
570.000000	87.683
580.000000	87.619
590.000000	87.554
600.000000	87.477
608.000000	87.400
615.000000	87.327
622.000000	87.251
630.000000	87.163
640.000000	87.048
650.000000	86.932
660.000000	86.817
670.000000	86.701
680.000000	86.578
690.000000	86.437
700.000000	86.286
710.000000	86.162
720.000000	86.095
730.000000	86.083
740.000000	86.126
750.000000	86.227
762.000000	86.395
775.000000	86.573
788.000000	86.725
800.000000	86.852
812.000000	86.970
825.000000	87.094
838.000000	87.220
850.000000	87.336
862.000000	87.442
875.000000	87.547
885.000000	87.622
900.000000	87.719
912.000000	87.783
925.000000	87.836
938.000000	87.872
950.000000	87.892
962.000000	87.902
975.000000	87.902
988.000000	87.901
1000.000000	87.903
1015.000000	87.915
1030.000000	87.939
1044.000000	87.968
1060.000000	88.008
1075.000000	88.053
1090.000000	88.102
1106.000000	88.162
1120.000000	88.220
1138.000000	88.300
1150.000000	88.349
1172.000000	88.430
1180.000000	88.457
1206.000000	88.544
1220.000000	88.591
1241.000000	88.663
1250.000000	88.695
1265.000000	88.748
1280.000000	88.800
1315.000000	88.914
1320.000000	88.929
1340.000000	88.988
1360.000000	89.046
1380.000000	89.108
1400.000000	89.179
1430.000000	89.305
1450.000000	89.399
1475.000000	89.520
1500.000000	89.644
1525.000000	89.779
1550.000000	89.941
1575.000000	90.150
1600.000000	90.393
1625.000000	90.609
1650.000000	90.748
1675.000000	90.829
1700.000000	90.904
1725.000000	90.997
1750.000000	91.104
1775.000000	91.212
1800.000000	91.314
1825.000000	91.415
1850.000000	91.522
1875.000000	91.638
1900.000000	91.764
1925.000000	91.892
1950.000000	92.017
1975.000000	92.136
2000.000000	92.243
2030.000000	92.349
2060.000000	92.424
2090.000000	92.461
2120.000000	92.448
2140.000000	92.405
2180.000000	92.233
2200.000000	92.113
2240.000000	91.837
2270.000000	91.635
2300.000000	91.466
2330.000000	91.348
2360.000000	91.293
2400.000000	91.325
2430.000000	91.425
2470.000000	91.644
2500.000000	91.862
2540.000000	92.204
2580.000000	92.582
2620.000000	92.970
2650.000000	93.255
2690.000000	93.621
2720.000000	93.891
2760.000000	94.253
2800.000000	94.624
2850.000000	95.096
2900.000000	95.556
2950.000000	95.964
3000.000000	96.288
3040.000000	96.489
3070.000000	96.618
3110.000000	96.773
3150.000000	96.910
3200.000000	97.051
3250.000000	97.158
3300.000000	97.247
3350.000000	97.347
3400.000000	97.467
3450.000000	97.589
3500.000000	97.692
3550.000000	97.763
3600.000000	97.809
3650.000000	97.849
3700.000000	97.906
3750.000000	97.995
3820.000000	98.179
3870.000000	98.336
3950.000000	98.558
4000.000000	98.626
4060.000000	98.580
4120.000000	98.361
4180.000000	97.976
4250.000000	97.362
4310.000000	96.748
4370.000000	96.102
4440.000000	95.352
4500.000000	94.733
4550.000000	94.238
4620.000000	93.579
4680.000000	93.055
4750.000000	92.497
4820.000000	92.001
4870.000000	91.685
4940.000000	91.304
5000.000000	91.038
5080.000000	90.774
5150.000000	90.629
5220.000000	90.560
5300.000000	90.566
5380.000000	90.641
5450.000000	90.738
5520.000000	90.830
5600.000000	90.865
5700.000000	90.684
5800.000000	90.134
5900.000000	89.155
6000.000000	87.761
6080.000000	86.406
6150.000000	85.131
6220.000000	83.876
6300.000000	82.636
6400.000000	81.689
6500.000000	81.699
6600.000000	82.610
6700.000000	83.959
6800.000000	85.264
6900.000000	86.267
7000.000000	86.904
7100.000000	87.225
7200.000000	87.348
7300.000000	87.409
7400.000000	87.523
7500.000000	87.753
7620.000000	88.171
7750.000000	88.668
7880.000000	89.024
8000.000000	89.130
8120.000000	89.006
8250.000000	88.625
8380.000000	88.007
8500.000000	87.249
8620.000000	86.272
8750.000000	84.885
8850.000000	83.662
9000.000000	82.498
9120.000000	83.040
9250.000000	84.395
9380.000000	85.431
9500.000000	85.797
9620.000000	85.652
9750.000000	85.117
9880.000000	84.473
10000.000000	84.042
10150.000000	83.910
10300.000000	84.118
10440.000000	84.449
10600.000000	84.926
10750.000000	85.438
10900.000000	85.974
11060.000000	86.583
11200.000000	87.124
11380.000000	87.541
11500.000000	87.427
11720.000000	86.245
11800.000000	85.578
12060.000000	83.314
12200.000000	82.627
12410.000000	83.018
12500.000000	83.590
12650.000000	84.687
12800.000000	85.659
13150.000000	86.793
13200.000000	86.818
13400.000000	86.601
13600.000000	86.031
13800.000000	85.408
14000.000000	84.884
14300.000000	84.500
14500.000000	85.207
14750.000000	87.500
15000.000000	90.405
15250.000000	92.889
15500.000000	94.353
15750.000000	94.607
16000.000000	93.770
16250.000000	92.242
16500.000000	90.711
16750.000000	89.851
17000.000000	89.672
17250.000000	89.503
17500.000000	88.759
17750.000000	87.431
18000.000000	86.011
18250.000000	85.051
18500.000000	84.954
18750.000000	85.794
19000.000000	86.996
19250.000000	87.937
19500.000000	88.380
19750.000000	88.385
