* Measurement data measured by REW V5.31.1
* Source: Frequency response averaged data
* Format: Averaged data produced from the rms magnitudes of L Australis (Ruck), L Australis (Ruck), L Australis (Ruck)
* Dated: Jun 30, 2024 11:57:04 AM
* REW Settings:
*  C-weighting compensation: Off
*  Target level: 75.0 dB
* Note: Averaged data produced from the rms magnitudes of L Australis (Ruck), L Australis (Ruck), L Australis (Ruck)
* Measurement: RMS Average L
* Smoothing: 1/12 octave
* Frequency Step: 1/48 octave
* Start Frequency: 20.000 Hz
*
* Freq(Hz)	SPL(dB)
20.000000	85.236
20.299999	85.369
20.600000	85.499
20.900000	85.627
21.200001	85.758
21.400000	85.846
21.799999	86.022
22.000000	86.106
22.400000	86.263
22.700001	86.370
23.000000	86.468
23.299999	86.563
23.600000	86.663
24.000000	86.807
24.299999	86.924
24.700001	87.084
25.000000	87.199
25.400000	87.336
25.799999	87.454
26.200001	87.558
26.500000	87.635
26.900000	87.739
27.200001	87.820
27.600000	87.928
28.000000	88.031
28.500000	88.150
29.000000	88.264
29.500000	88.375
30.000000	88.480
30.400000	88.553
30.700001	88.601
31.100000	88.660
31.500000	88.721
32.000000	88.805
32.500000	88.894
33.000000	88.974
33.500000	89.035
34.000000	89.076
34.500000	89.106
35.000000	89.129
35.500000	89.145
36.000000	89.152
36.500000	89.155
37.000000	89.158
37.500000	89.168
38.200001	89.199
38.700001	89.227
39.500000	89.276
40.000000	89.306
40.599998	89.344
41.200001	89.391
41.799999	89.452
42.500000	89.546
43.099998	89.636
43.700001	89.723
44.400002	89.816
45.000000	89.887
45.500000	89.941
46.200001	90.006
46.799999	90.053
47.500000	90.102
48.200001	90.145
48.700001	90.173
49.400002	90.216
50.000000	90.261
50.799999	90.332
51.500000	90.397
52.200001	90.457
53.000000	90.516
53.799999	90.570
54.500000	90.612
55.200001	90.649
56.000000	90.683
57.000000	90.717
58.000000	90.744
59.000000	90.768
60.000000	90.793
60.799999	90.813
61.500000	90.833
62.200001	90.855
63.000000	90.883
64.000000	90.921
65.000000	90.961
66.000000	91.000
67.000000	91.041
68.000000	91.081
69.000000	91.120
70.000000	91.159
71.000000	91.198
72.000000	91.235
73.000000	91.270
74.000000	91.302
75.000000	91.336
76.199997	91.379
77.500000	91.432
78.800003	91.492
80.000000	91.550
81.199997	91.608
82.500000	91.668
83.800003	91.722
85.000000	91.765
86.199997	91.803
87.500000	91.841
88.500000	91.869
90.000000	91.909
91.199997	91.940
92.500000	91.971
93.800003	92.002
95.000000	92.030
96.199997	92.055
97.500000	92.075
98.800003	92.089
100.000000	92.098
101.500000	92.108
103.000000	92.118
104.400002	92.128
106.000000	92.138
107.500000	92.147
109.000000	92.155
110.599998	92.162
112.000000	92.166
113.800003	92.168
115.000000	92.165
117.199997	92.155
118.000000	92.150
120.599998	92.137
122.000000	92.131
124.099998	92.121
125.000000	92.114
126.500000	92.099
128.000000	92.078
131.500000	92.022
132.000000	92.014
134.000000	91.985
136.000000	91.971
138.000000	91.979
140.000000	92.011
143.000000	92.080
145.000000	92.122
147.500000	92.154
150.000000	92.161
152.500000	92.150
155.000000	92.126
157.500000	92.094
160.000000	92.062
162.500000	92.034
165.000000	92.014
167.500000	92.003
170.000000	91.998
172.500000	91.994
175.000000	91.990
177.500000	91.983
180.000000	91.970
182.500000	91.950
185.000000	91.927
187.500000	91.904
190.000000	91.882
192.500000	91.860
195.000000	91.836
197.500000	91.810
200.000000	91.784
203.000000	91.755
206.000000	91.729
209.000000	91.703
212.000000	91.670
214.000000	91.644
218.000000	91.590
220.000000	91.565
224.000000	91.522
227.000000	91.488
230.000000	91.452
233.000000	91.414
236.000000	91.373
240.000000	91.327
243.000000	91.299
247.000000	91.256
250.000000	91.214
254.000000	91.149
258.000000	91.086
262.000000	91.029
265.000000	90.988
269.000000	90.933
272.000000	90.889
276.000000	90.823
280.000000	90.750
285.000000	90.664
290.000000	90.594
295.000000	90.530
300.000000	90.453
304.000000	90.381
307.000000	90.323
311.000000	90.236
315.000000	90.140
320.000000	90.023
325.000000	89.926
330.000000	89.828
335.000000	89.727
340.000000	89.649
345.000000	89.590
350.000000	89.525
355.000000	89.448
360.000000	89.362
365.000000	89.260
370.000000	89.148
375.000000	89.032
382.000000	88.870
387.000000	88.758
395.000000	88.581
400.000000	88.467
406.000000	88.330
412.000000	88.190
418.000000	88.044
425.000000	87.865
431.000000	87.705
437.000000	87.543
444.000000	87.361
450.000000	87.207
455.000000	87.070
462.000000	86.854
468.000000	86.659
475.000000	86.438
482.000000	86.235
487.000000	86.102
494.000000	85.932
500.000000	85.807
508.000000	85.678
515.000000	85.590
522.000000	85.513
530.000000	85.439
538.000000	85.389
545.000000	85.373
552.000000	85.382
560.000000	85.417
570.000000	85.498
580.000000	85.619
590.000000	85.773
600.000000	85.954
608.000000	86.111
615.000000	86.251
622.000000	86.391
630.000000	86.550
640.000000	86.749
650.000000	86.951
660.000000	87.147
670.000000	87.325
680.000000	87.488
690.000000	87.635
700.000000	87.764
710.000000	87.877
720.000000	87.984
730.000000	88.085
740.000000	88.180
750.000000	88.264
762.000000	88.347
775.000000	88.409
788.000000	88.438
800.000000	88.440
812.000000	88.425
825.000000	88.394
838.000000	88.346
850.000000	88.285
862.000000	88.208
875.000000	88.114
885.000000	88.042
900.000000	87.945
912.000000	87.880
925.000000	87.812
938.000000	87.744
950.000000	87.687
962.000000	87.645
975.000000	87.617
988.000000	87.607
1000.000000	87.610
1015.000000	87.633
1030.000000	87.683
1044.000000	87.761
1060.000000	87.881
1075.000000	87.990
1090.000000	88.071
1106.000000	88.130
1120.000000	88.173
1138.000000	88.226
1150.000000	88.263
1172.000000	88.326
1180.000000	88.347
1206.000000	88.410
1220.000000	88.446
1241.000000	88.506
1250.000000	88.533
1265.000000	88.574
1280.000000	88.603
1315.000000	88.599
1320.000000	88.592
1340.000000	88.560
1360.000000	88.536
1380.000000	88.531
1400.000000	88.544
1430.000000	88.579
1450.000000	88.598
1475.000000	88.598
1500.000000	88.563
1525.000000	88.504
1550.000000	88.441
1575.000000	88.387
1600.000000	88.347
1625.000000	88.317
1650.000000	88.288
1675.000000	88.254
1700.000000	88.214
1725.000000	88.174
1750.000000	88.141
1775.000000	88.121
1800.000000	88.115
1825.000000	88.124
1850.000000	88.144
1875.000000	88.171
1900.000000	88.202
1925.000000	88.231
1950.000000	88.254
1975.000000	88.268
2000.000000	88.272
2030.000000	88.272
2060.000000	88.273
2090.000000	88.279
2120.000000	88.292
2140.000000	88.305
2180.000000	88.345
2200.000000	88.374
2240.000000	88.456
2270.000000	88.538
2300.000000	88.626
2330.000000	88.701
2360.000000	88.758
2400.000000	88.837
2430.000000	88.925
2470.000000	89.073
2500.000000	89.191
2540.000000	89.345
2580.000000	89.491
2620.000000	89.628
2650.000000	89.728
2690.000000	89.864
2720.000000	89.976
2760.000000	90.143
2800.000000	90.344
2850.000000	90.650
2900.000000	91.021
2950.000000	91.448
3000.000000	91.920
3040.000000	92.319
3070.000000	92.624
3110.000000	93.028
3150.000000	93.418
3200.000000	93.861
3250.000000	94.239
3300.000000	94.538
3350.000000	94.756
3400.000000	94.892
3450.000000	94.940
3500.000000	94.894
3550.000000	94.769
3600.000000	94.598
3650.000000	94.413
3700.000000	94.224
3750.000000	94.025
3820.000000	93.706
3870.000000	93.439
3950.000000	92.960
4000.000000	92.645
4060.000000	92.271
4120.000000	91.913
4180.000000	91.584
4250.000000	91.244
4310.000000	90.995
4370.000000	90.787
4440.000000	90.600
4500.000000	90.486
4550.000000	90.426
4620.000000	90.392
4680.000000	90.412
4750.000000	90.493
4820.000000	90.640
4870.000000	90.787
4940.000000	91.059
5000.000000	91.357
5080.000000	91.859
5150.000000	92.401
5220.000000	93.036
5300.000000	93.853
5380.000000	94.709
5450.000000	95.413
5520.000000	95.992
5600.000000	96.404
5700.000000	96.435
5800.000000	95.898
5900.000000	94.871
6000.000000	93.507
6080.000000	92.288
6150.000000	91.195
6220.000000	90.122
6300.000000	88.959
6400.000000	87.650
6500.000000	86.534
6600.000000	85.615
6700.000000	84.864
6800.000000	84.240
6900.000000	83.704
7000.000000	83.234
7100.000000	82.836
7200.000000	82.549
7300.000000	82.413
7400.000000	82.414
7500.000000	82.482
7620.000000	82.561
7750.000000	82.586
7880.000000	82.505
8000.000000	82.298
8120.000000	82.023
8250.000000	81.880
8380.000000	82.147
8500.000000	82.708
8620.000000	83.311
8750.000000	83.724
8850.000000	83.742
9000.000000	83.165
9120.000000	82.175
9250.000000	80.616
9380.000000	78.582
9500.000000	76.320
9620.000000	73.905
9750.000000	71.850
9880.000000	71.214
10000.000000	71.577
10150.000000	72.285
10300.000000	72.911
10440.000000	73.547
10600.000000	74.484
10750.000000	75.525
10900.000000	76.642
11060.000000	77.802
11200.000000	78.632
11380.000000	79.163
11500.000000	79.055
11720.000000	77.809
11800.000000	77.058
12060.000000	74.430
12200.000000	73.991
12410.000000	75.347
12500.000000	76.197
12650.000000	77.425
12800.000000	78.192
13150.000000	77.876
13200.000000	77.620
13400.000000	76.358
13600.000000	75.345
13800.000000	75.226
14000.000000	75.778
14300.000000	76.765
14500.000000	77.150
14750.000000	77.124
15000.000000	76.534
15250.000000	75.833
15500.000000	76.095
15750.000000	77.641
16000.000000	79.381
16250.000000	80.640
16500.000000	81.468
16750.000000	82.105
17000.000000	82.667
17250.000000	83.042
17500.000000	82.966
17750.000000	82.232
18000.000000	80.847
18250.000000	79.090
18500.000000	77.519
18750.000000	76.636
19000.000000	76.382
19250.000000	76.342
19500.000000	76.247
19750.000000	76.072
