* Measurement data measured by REW V5.20.13
* Source: EXCL: Headset (USB-C to 3.5mm Headphone Jack Adapter), MICROPHONE (Master Volume), 0, volume: 0.260. Timing signal peak level -32.6 dBFS, measurement signal peak level -32.6 dBFS
* Format: 256k Log Swept Sine, 1 sweep at -20.0 dBFS using an acoustic timing reference
* Dated: Jun 8, 2023 9:37:23 PM
* REW Settings:
*  C-weighting compensation: Off
*  Target level: 75.0 dB
* Note: Australis Capra Headband
* Measurement: Australis Capra Headband
* Smoothing: 1/12 octave
* Frequency Step: 1/48 octave
* Start Frequency: 20.000 Hz
*
* Freq(Hz)	SPL(dB)	Phase(degrees)
20.000000	78.887	-87.6692
20.299999	79.011	-88.7985
20.600000	79.127	-89.9104
20.900000	79.235	-90.9949
21.200001	79.335	-92.0428
21.400000	79.400	-92.7187
21.799999	79.524	-94.0200
22.000000	79.584	-94.6495
22.400000	79.703	-95.8792
22.700001	79.788	-96.7845
23.000000	79.870	-97.6775
23.299999	79.948	-98.5531
23.600000	80.022	-99.4059
24.000000	80.117	-100.5026
24.299999	80.186	-101.2977
24.700001	80.274	-102.3292
25.000000	80.338	-103.0815
25.400000	80.418	-104.0417
25.799999	80.496	-104.9250
26.200001	80.579	-105.7213
26.500000	80.651	-106.2834
26.900000	80.760	-107.0432
27.200001	80.849	-107.6651
27.600000	80.967	-108.5956
28.000000	81.073	-109.6167
28.500000	81.179	-110.8996
29.000000	81.268	-112.0550
29.500000	81.359	-113.0684
30.000000	81.464	-114.0377
30.400000	81.552	-114.8432
30.700001	81.617	-115.4715
31.100000	81.698	-116.3239
31.500000	81.774	-117.1723
32.000000	81.864	-118.2149
32.500000	81.951	-119.2535
33.000000	82.033	-120.3093
33.500000	82.105	-121.3845
34.000000	82.165	-122.4641
34.500000	82.211	-123.5170
35.000000	82.242	-124.4961
35.500000	82.267	-125.3510
36.000000	82.298	-126.0739
36.500000	82.347	-126.7223
37.000000	82.416	-127.3972
37.500000	82.494	-128.1720
38.200001	82.597	-129.4295
38.700001	82.657	-130.3891
39.500000	82.733	-131.9226
40.000000	82.771	-132.8710
40.599998	82.806	-133.9967
41.200001	82.827	-135.0817
41.799999	82.837	-136.0984
42.500000	82.841	-137.1949
43.099998	82.838	-138.0607
43.700001	82.832	-138.8427
44.400002	82.826	-139.6476
45.000000	82.826	-140.2722
45.500000	82.829	-140.7547
46.200001	82.840	-141.3582
46.799999	82.862	-141.8326
47.500000	82.903	-142.4428
48.200001	82.938	-143.1589
48.700001	82.951	-143.6786
49.400002	82.959	-144.3247
50.000000	82.968	-144.8116
50.799999	82.987	-145.4683
51.500000	83.003	-146.0957
52.200001	83.016	-146.7663
53.000000	83.026	-147.5942
53.799999	83.029	-148.4916
54.500000	83.024	-149.2949
55.200001	83.014	-150.0599
56.000000	83.008	-150.8445
57.000000	83.029	-151.7534
58.000000	83.070	-152.7905
59.000000	83.079	-153.9307
60.000000	83.040	-154.8152
60.799999	83.003	-155.2475
61.500000	82.980	-155.5252
62.200001	82.961	-155.7937
63.000000	82.936	-156.1162
64.000000	82.895	-156.5160
65.000000	82.849	-156.8782
66.000000	82.809	-157.2035
67.000000	82.779	-157.5062
68.000000	82.762	-157.7802
69.000000	82.759	-158.0252
70.000000	82.768	-158.2616
71.000000	82.785	-158.5004
72.000000	82.805	-158.7411
73.000000	82.828	-158.9895
74.000000	82.851	-159.2520
75.000000	82.876	-159.5278
76.199997	82.907	-159.8757
77.500000	82.944	-160.2779
78.800003	82.984	-160.6965
80.000000	83.025	-161.1139
81.199997	83.067	-161.5755
82.500000	83.112	-162.0970
83.800003	83.163	-162.6595
85.000000	83.210	-163.2274
86.199997	83.254	-163.8199
87.500000	83.297	-164.4779
88.500000	83.324	-164.9947
90.000000	83.353	-165.7758
91.199997	83.366	-166.4045
92.500000	83.374	-167.0966
93.800003	83.375	-167.7923
95.000000	83.373	-168.4204
96.199997	83.372	-169.0218
97.500000	83.372	-169.6384
98.800003	83.374	-170.2244
100.000000	83.377	-170.7519
101.500000	83.378	-171.4132
103.000000	83.373	-172.0858
104.400002	83.363	-172.7187
106.000000	83.346	-173.4270
107.500000	83.328	-174.0558
109.000000	83.307	-174.6495
110.599998	83.282	-175.2678
112.000000	83.258	-175.8120
113.800003	83.227	-176.5216
115.000000	83.213	-177.0067
117.199997	83.200	-177.9403
118.000000	83.195	-178.2966
120.599998	83.142	-179.3863
122.000000	83.091	-179.8274
124.099998	83.014	179.6507
125.000000	82.985	179.4331
126.500000	82.939	179.0544
128.000000	82.895	178.6687
131.500000	82.789	177.8335
132.000000	82.773	177.7227
134.000000	82.707	177.2899
136.000000	82.644	176.8677
138.000000	82.585	176.4476
140.000000	82.529	176.0328
143.000000	82.443	175.4568
145.000000	82.383	175.1182
147.500000	82.306	174.7440
150.000000	82.231	174.4199
152.500000	82.161	174.1542
155.000000	82.091	173.9346
157.500000	82.020	173.7224
160.000000	81.956	173.4895
162.500000	81.904	173.2555
165.000000	81.851	173.0565
167.500000	81.787	172.8807
170.000000	81.716	172.7222
172.500000	81.654	172.6076
175.000000	81.609	172.5312
177.500000	81.576	172.4371
180.000000	81.551	172.2646
182.500000	81.528	172.0101
185.000000	81.498	171.7244
187.500000	81.457	171.4572
190.000000	81.409	171.2134
192.500000	81.356	170.9809
195.000000	81.301	170.7552
197.500000	81.248	170.5324
200.000000	81.197	170.3182
203.000000	81.137	170.0891
206.000000	81.074	169.8878
209.000000	81.005	169.7079
212.000000	80.934	169.5489
214.000000	80.887	169.4548
218.000000	80.795	169.3117
220.000000	80.748	169.2692
224.000000	80.655	169.2279
227.000000	80.586	169.2162
230.000000	80.521	169.2158
233.000000	80.462	169.2346
236.000000	80.406	169.2772
240.000000	80.327	169.3430
243.000000	80.259	169.3830
247.000000	80.166	169.4505
250.000000	80.100	169.5260
254.000000	80.022	169.6574
258.000000	79.952	169.8351
262.000000	79.886	170.0403
265.000000	79.837	170.1857
269.000000	79.772	170.3720
272.000000	79.724	170.5226
276.000000	79.663	170.7394
280.000000	79.605	170.9585
285.000000	79.536	171.2441
290.000000	79.470	171.5782
295.000000	79.407	171.9410
300.000000	79.345	172.3037
304.000000	79.296	172.6119
307.000000	79.261	172.8705
311.000000	79.217	173.2561
315.000000	79.180	173.6626
320.000000	79.142	174.1455
325.000000	79.108	174.5803
330.000000	79.073	175.0048
335.000000	79.038	175.4790
340.000000	79.011	176.0347
345.000000	78.996	176.6464
350.000000	78.995	177.2563
355.000000	79.002	177.8348
360.000000	79.020	178.3907
365.000000	79.050	178.9288
370.000000	79.090	179.4297
375.000000	79.138	179.8788
382.000000	79.212	-179.5951
387.000000	79.267	-179.3095
395.000000	79.349	-178.9954
400.000000	79.396	-178.8502
406.000000	79.451	-178.7055
412.000000	79.506	-178.5980
418.000000	79.562	-178.5264
425.000000	79.623	-178.4812
431.000000	79.674	-178.4668
437.000000	79.723	-178.4637
444.000000	79.779	-178.4754
450.000000	79.826	-178.5079
455.000000	79.864	-178.5541
462.000000	79.914	-178.6499
468.000000	79.955	-178.7618
475.000000	80.001	-178.9219
482.000000	80.044	-179.1096
487.000000	80.074	-179.2636
494.000000	80.112	-179.5078
500.000000	80.140	-179.7341
508.000000	80.170	179.9573
515.000000	80.193	179.6818
522.000000	80.215	179.3905
530.000000	80.236	179.0305
538.000000	80.251	178.6521
545.000000	80.257	178.3211
552.000000	80.257	177.9935
560.000000	80.253	177.6140
570.000000	80.239	177.1388
580.000000	80.215	176.7077
590.000000	80.189	176.3341
600.000000	80.162	175.9776
608.000000	80.139	175.6853
615.000000	80.115	175.4276
622.000000	80.090	175.1772
630.000000	80.057	174.9095
640.000000	80.014	174.6061
650.000000	79.969	174.3288
660.000000	79.924	174.0674
670.000000	79.877	173.8159
680.000000	79.829	173.5717
690.000000	79.778	173.3350
700.000000	79.725	173.1074
710.000000	79.671	172.8866
720.000000	79.614	172.6688
730.000000	79.554	172.4579
740.000000	79.490	172.2651
750.000000	79.423	172.0971
762.000000	79.343	171.9261
775.000000	79.255	171.7690
788.000000	79.166	171.6243
800.000000	79.080	171.4907
812.000000	78.989	171.3643
825.000000	78.885	171.2557
838.000000	78.777	171.1786
850.000000	78.672	171.1306
862.000000	78.563	171.1084
875.000000	78.438	171.1188
885.000000	78.336	171.1544
900.000000	78.171	171.2755
912.000000	78.028	171.4761
925.000000	77.867	171.8521
938.000000	77.709	172.4181
950.000000	77.577	173.0914
962.000000	77.465	173.8606
975.000000	77.366	174.7366
988.000000	77.287	175.6114
1000.000000	77.228	176.4066
1015.000000	77.173	177.3864
1030.000000	77.143	178.3097
1044.000000	77.135	179.0290
1060.000000	77.127	179.6194
1075.000000	77.099	-179.9805
1090.000000	77.043	-179.5833
1106.000000	76.962	-179.0309
1120.000000	76.889	-178.3945
1138.000000	76.812	-177.3965
1150.000000	76.782	-176.6782
1172.000000	76.769	-175.4624
1180.000000	76.773	-175.1000
1206.000000	76.772	-174.2352
1220.000000	76.748	-173.8614
1241.000000	76.688	-173.2243
1250.000000	76.658	-172.9023
1265.000000	76.609	-172.3120
1280.000000	76.564	-171.6816
1315.000000	76.468	-170.1233
1320.000000	76.454	-169.8880
1340.000000	76.405	-168.9063
1360.000000	76.363	-167.8669
1380.000000	76.334	-166.8023
1400.000000	76.316	-165.7559
1430.000000	76.295	-164.2556
1450.000000	76.281	-163.2806
1475.000000	76.258	-162.0520
1500.000000	76.230	-160.7558
1525.000000	76.204	-159.3161
1550.000000	76.197	-157.7410
1575.000000	76.219	-156.1276
1600.000000	76.264	-154.5627
1625.000000	76.324	-153.0879
1650.000000	76.386	-151.6899
1675.000000	76.443	-150.2815
1700.000000	76.505	-148.7640
1725.000000	76.596	-147.1364
1750.000000	76.729	-145.5210
1775.000000	76.900	-144.1005
1800.000000	77.082	-142.9956
1825.000000	77.247	-142.1672
1850.000000	77.382	-141.4552
1875.000000	77.494	-140.7078
1900.000000	77.599	-139.8655
1925.000000	77.710	-138.9543
1950.000000	77.832	-138.0339
1975.000000	77.963	-137.1545
2000.000000	78.098	-136.3340
2030.000000	78.256	-135.4037
2060.000000	78.411	-134.4770
2090.000000	78.567	-133.4936
2120.000000	78.737	-132.4276
2140.000000	78.868	-131.6886
2180.000000	79.182	-130.2850
2200.000000	79.366	-129.7124
2240.000000	79.758	-129.0565
2270.000000	80.036	-129.0595
2300.000000	80.268	-129.3793
2330.000000	80.447	-129.8109
2360.000000	80.583	-130.1752
2400.000000	80.732	-130.4396
2430.000000	80.837	-130.4884
2470.000000	80.982	-130.4197
2500.000000	81.098	-130.3158
2540.000000	81.265	-130.1818
2580.000000	81.439	-130.1122
2620.000000	81.613	-130.1142
2650.000000	81.742	-130.1438
2690.000000	81.915	-130.2038
2720.000000	82.047	-130.2687
2760.000000	82.228	-130.4034
2800.000000	82.414	-130.6182
2850.000000	82.651	-131.0276
2900.000000	82.891	-131.6167
2950.000000	83.128	-132.4159
3000.000000	83.355	-133.4454
3040.000000	83.523	-134.4300
3070.000000	83.640	-135.2545
3110.000000	83.781	-136.4524
3150.000000	83.905	-137.7365
3200.000000	84.043	-139.4446
3250.000000	84.166	-141.3378
3300.000000	84.260	-143.5168
3350.000000	84.299	-145.9410
3400.000000	84.271	-148.4634
3450.000000	84.178	-150.9525
3500.000000	84.026	-153.3009
3550.000000	83.825	-155.4157
3600.000000	83.592	-157.2536
3650.000000	83.343	-158.8611
3700.000000	83.084	-160.3277
3750.000000	82.808	-161.6873
3820.000000	82.384	-163.3518
3870.000000	82.053	-164.3017
3950.000000	81.489	-165.3020
4000.000000	81.126	-165.5731
4060.000000	80.691	-165.5350
4120.000000	80.272	-165.1340
4180.000000	79.879	-164.4416
4250.000000	79.459	-163.3633
4310.000000	79.128	-162.2484
4370.000000	78.823	-160.9676
4440.000000	78.500	-159.2812
4500.000000	78.252	-157.6830
4550.000000	78.067	-156.2388
4620.000000	77.844	-154.0304
4680.000000	77.692	-151.9645
4750.000000	77.574	-149.3839
4820.000000	77.527	-146.6823
4870.000000	77.541	-144.7190
4940.000000	77.629	-141.9739
5000.000000	77.770	-139.6632
5080.000000	78.059	-136.7153
5150.000000	78.413	-134.3466
5220.000000	78.868	-132.2817
5300.000000	79.515	-130.4681
5380.000000	80.293	-129.5006
5450.000000	81.065	-129.6325
5520.000000	81.882	-130.9925
5600.000000	82.795	-134.4614
5700.000000	83.724	-142.1196
5800.000000	84.186	-153.0431
5900.000000	84.017	-165.2233
6000.000000	83.217	-175.8528
6080.000000	82.220	178.1249
6150.000000	81.188	174.9288
6220.000000	80.091	173.5012
6300.000000	78.849	173.6055
6400.000000	77.424	175.5097
6500.000000	76.190	178.5202
6600.000000	75.106	-177.8042
6700.000000	74.092	-173.2487
6800.000000	73.125	-167.1717
6900.000000	72.325	-159.1515
7000.000000	71.942	-149.7431
7100.000000	72.135	-140.5999
7200.000000	72.743	-133.4822
7300.000000	73.459	-129.0981
7400.000000	74.082	-126.9847
7500.000000	74.557	-126.2026
7620.000000	74.976	-125.9398
7750.000000	75.349	-125.8068
7880.000000	75.747	-125.7971
8000.000000	76.197	-126.2673
8120.000000	76.738	-127.7409
8250.000000	77.373	-131.1912
8380.000000	77.927	-137.2620
8500.000000	78.209	-145.2534
8620.000000	78.162	-154.7840
8750.000000	77.710	-165.5568
8850.000000	77.103	-173.4633
9000.000000	75.854	175.8177
9120.000000	74.628	168.0684
9250.000000	73.111	159.7880
9380.000000	71.384	150.1747
9500.000000	69.552	137.6127
9620.000000	67.437	117.3657
9750.000000	64.944	81.1115
9880.000000	63.105	30.0948
10000.000000	63.215	-18.3466
10150.000000	65.064	-62.3581
10300.000000	67.036	-86.0076
10440.000000	68.593	-97.1877
10600.000000	70.115	-104.6196
10750.000000	71.347	-110.2863
10900.000000	72.379	-116.3373
11060.000000	73.237	-123.5947
11200.000000	73.795	-130.4178
11380.000000	74.313	-139.5443
11500.000000	74.575	-145.9704
11720.000000	74.874	-159.5652
11800.000000	74.884	-165.3417
12060.000000	74.268	173.5527
12200.000000	73.408	162.3655
12410.000000	71.401	148.8409
12500.000000	70.332	144.3272
12650.000000	68.397	137.1846
12800.000000	66.431	127.7083
13150.000000	62.900	74.8823
13200.000000	62.677	62.7244
13400.000000	62.915	7.0558
13600.000000	64.386	-47.9946
13800.000000	65.892	-92.0067
14000.000000	66.940	-124.8215
14300.000000	67.508	-161.4856
14500.000000	67.262	179.7444
14750.000000	66.668	162.4165
15000.000000	66.422	149.0190
15250.000000	66.624	135.2703
15500.000000	66.799	120.1938
15750.000000	66.794	107.2649
16000.000000	67.333	97.8055
16250.000000	68.545	84.9943
16500.000000	69.470	64.0166
16750.000000	69.608	37.8856
17000.000000	69.081	11.0417
17250.000000	68.213	-15.7040
17500.000000	67.162	-43.7498
17750.000000	65.825	-73.1907
18000.000000	64.037	-101.7266
18250.000000	61.844	-127.1196
18500.000000	59.713	-150.8384
18750.000000	58.395	-177.8867
19000.000000	58.014	148.0417
19250.000000	57.946	107.8333
19500.000000	57.749	66.1333
19750.000000	57.375	30.0925
