* Measurement data measured by REW V5.20.13
* Source: EXCL: Headset (USB-C to 3.5mm Headphone Jack Adapter), MICROPHONE (Master Volume), 0, volume: 0.260
* Format: 256k Log Swept Sine, 1 sweep at -12.0 dBFS with no timing reference
* Dated: Aug 20, 2023 4:41:05 PM
* REW Settings:
*  C-weighting compensation: Off
*  Target level: 75.0 dB
* Note: 
* Measurement: CA800
* Smoothing: 1/12 octave
* Frequency Step: 1/48 octave
* Start Frequency: 20.000 Hz
*
* Freq(Hz)	SPL(dB)	Phase(degrees)
20.000000	59.298	-40.2814
20.299999	59.500	-41.7751
20.600000	59.676	-43.3338
20.900000	59.819	-44.8449
21.200001	59.937	-46.1497
21.400000	60.018	-46.8603
21.799999	60.216	-48.0085
22.000000	60.341	-48.5508
22.400000	60.635	-49.8771
22.700001	60.856	-51.2528
23.000000	61.034	-52.9413
23.299999	61.148	-54.7070
23.600000	61.203	-56.2770
24.000000	61.238	-57.7232
24.299999	61.298	-58.2976
24.700001	61.487	-58.7577
25.000000	61.707	-59.3114
25.400000	62.038	-60.7935
25.799999	62.298	-63.1587
26.200001	62.414	-65.8527
26.500000	62.412	-67.5915
26.900000	62.350	-69.0726
27.200001	62.330	-69.5036
27.600000	62.419	-69.5085
28.000000	62.660	-69.5835
28.500000	63.062	-70.7121
29.000000	63.378	-73.0976
29.500000	63.510	-75.8794
30.000000	63.495	-77.9548
30.400000	63.463	-78.7730
30.700001	63.473	-78.9724
31.100000	63.566	-79.0091
31.500000	63.742	-79.1507
32.000000	64.018	-79.8893
32.500000	64.277	-81.3390
33.000000	64.460	-83.2429
33.500000	64.557	-85.2426
34.000000	64.587	-87.0267
34.500000	64.583	-88.4306
35.000000	64.582	-89.4516
35.500000	64.611	-90.2067
36.000000	64.679	-90.8477
36.500000	64.781	-91.4839
37.000000	64.909	-92.1748
37.500000	65.056	-92.9532
38.200001	65.275	-94.2529
38.700001	65.423	-95.3481
39.500000	65.618	-97.2853
40.000000	65.709	-98.5267
40.599998	65.788	-100.0025
41.200001	65.837	-101.4533
41.799999	65.857	-102.8593
42.500000	65.850	-104.4139
43.099998	65.824	-105.6589
43.700001	65.785	-106.7821
44.400002	65.738	-107.8660
45.000000	65.718	-108.5981
45.500000	65.721	-109.1134
46.200001	65.755	-109.7305
46.799999	65.808	-110.1570
47.500000	65.896	-110.5184
48.200001	66.014	-110.7136
48.700001	66.126	-110.7807
49.400002	66.331	-111.0033
50.000000	66.517	-111.6002
50.799999	66.689	-113.0158
51.500000	66.733	-114.3605
52.200001	66.723	-115.4435
53.000000	66.706	-116.4165
53.799999	66.705	-117.2386
54.500000	66.738	-117.8964
55.200001	66.805	-118.6569
56.000000	66.887	-119.7400
57.000000	66.956	-121.1038
58.000000	67.007	-122.1244
59.000000	67.085	-122.9403
60.000000	67.176	-124.1077
60.799999	67.196	-125.4224
61.500000	67.154	-126.6151
62.200001	67.081	-127.6549
63.000000	66.998	-128.6419
64.000000	66.930	-129.7173
65.000000	66.902	-130.6760
66.000000	66.911	-131.4816
67.000000	66.943	-132.1367
68.000000	66.977	-132.6571
69.000000	67.001	-133.0345
70.000000	67.019	-133.3455
71.000000	67.034	-133.7531
72.000000	67.041	-134.3500
73.000000	67.038	-135.1190
74.000000	67.028	-135.9969
75.000000	67.014	-136.9137
76.199997	66.985	-137.9527
77.500000	66.936	-138.8534
78.800003	66.875	-139.4593
80.000000	66.818	-139.8094
81.199997	66.760	-139.9933
82.500000	66.709	-139.9480
83.800003	66.684	-139.6613
85.000000	66.682	-139.2005
86.199997	66.702	-138.5596
87.500000	66.750	-137.7673
88.500000	66.807	-137.1511
90.000000	66.943	-136.3351
91.199997	67.102	-135.9471
92.500000	67.307	-135.9123
93.800003	67.519	-136.2589
95.000000	67.699	-136.8282
96.199997	67.854	-137.5502
97.500000	67.988	-138.4246
98.800003	68.096	-139.3510
100.000000	68.180	-140.2459
101.500000	68.269	-141.3933
103.000000	68.347	-142.4970
104.400002	68.411	-143.4343
106.000000	68.474	-144.3842
107.500000	68.524	-145.2214
109.000000	68.563	-146.1108
110.599998	68.587	-147.1107
112.000000	68.596	-147.9260
113.800003	68.606	-148.7644
115.000000	68.613	-149.1781
117.199997	68.618	-149.7185
118.000000	68.618	-149.8901
120.599998	68.623	-150.7516
122.000000	68.619	-151.4857
124.099998	68.603	-152.6338
125.000000	68.599	-153.0717
126.500000	68.596	-153.7037
128.000000	68.593	-154.2347
131.500000	68.585	-155.3981
132.000000	68.585	-155.5829
134.000000	68.585	-156.3514
136.000000	68.582	-157.0219
138.000000	68.585	-157.5037
140.000000	68.606	-157.9521
143.000000	68.649	-158.9196
145.000000	68.659	-159.7230
147.500000	68.631	-160.6403
150.000000	68.566	-161.3492
152.500000	68.470	-161.8664
155.000000	68.361	-162.0447
157.500000	68.286	-161.8990
160.000000	68.267	-161.7481
162.500000	68.273	-161.8231
165.000000	68.276	-162.0611
167.500000	68.276	-162.3468
170.000000	68.278	-162.6111
172.500000	68.282	-162.8345
175.000000	68.289	-163.0319
177.500000	68.298	-163.2150
180.000000	68.312	-163.4006
182.500000	68.326	-163.6112
185.000000	68.338	-163.8402
187.500000	68.349	-164.0637
190.000000	68.358	-164.2433
192.500000	68.365	-164.3445
195.000000	68.374	-164.3860
197.500000	68.391	-164.4167
200.000000	68.419	-164.4717
203.000000	68.462	-164.5841
206.000000	68.514	-164.7425
209.000000	68.569	-164.9427
212.000000	68.624	-165.1887
214.000000	68.658	-165.3828
218.000000	68.716	-165.8553
220.000000	68.738	-166.1303
224.000000	68.774	-166.7112
227.000000	68.796	-167.1337
230.000000	68.816	-167.5258
233.000000	68.835	-167.8849
236.000000	68.854	-168.2184
240.000000	68.880	-168.6477
243.000000	68.898	-168.9717
247.000000	68.917	-169.4068
250.000000	68.926	-169.7340
254.000000	68.934	-170.1616
258.000000	68.940	-170.5515
262.000000	68.949	-170.8780
265.000000	68.962	-171.0966
269.000000	68.985	-171.4122
272.000000	69.003	-171.6919
276.000000	69.024	-172.1059
280.000000	69.039	-172.5298
285.000000	69.047	-173.0394
290.000000	69.051	-173.4886
295.000000	69.055	-173.8677
300.000000	69.065	-174.2068
304.000000	69.079	-174.5000
307.000000	69.092	-174.7486
311.000000	69.107	-175.1043
315.000000	69.120	-175.4638
320.000000	69.134	-175.8981
325.000000	69.145	-176.3228
330.000000	69.152	-176.7507
335.000000	69.155	-177.1818
340.000000	69.156	-177.6140
345.000000	69.155	-178.0428
350.000000	69.151	-178.4541
355.000000	69.143	-178.8363
360.000000	69.138	-179.1938
365.000000	69.135	-179.5388
370.000000	69.133	-179.8771
375.000000	69.131	179.7869
382.000000	69.128	179.3097
387.000000	69.126	178.9562
395.000000	69.121	178.3540
400.000000	69.116	177.9632
406.000000	69.108	177.4951
412.000000	69.100	177.0239
418.000000	69.092	176.5394
425.000000	69.079	175.9603
431.000000	69.063	175.4562
437.000000	69.042	174.9373
444.000000	69.009	174.2754
450.000000	68.965	173.6381
455.000000	68.914	173.0751
462.000000	68.806	172.3222
468.000000	68.675	171.8542
475.000000	68.492	171.7483
482.000000	68.330	172.2208
487.000000	68.263	172.7977
494.000000	68.249	173.6095
500.000000	68.293	174.0737
508.000000	68.376	174.2360
515.000000	68.435	174.0377
522.000000	68.470	173.6705
530.000000	68.480	173.1918
538.000000	68.471	172.7369
545.000000	68.455	172.3679
552.000000	68.436	172.0157
560.000000	68.411	171.6102
570.000000	68.371	171.0538
580.000000	68.310	170.4818
590.000000	68.228	169.9555
600.000000	68.125	169.4761
608.000000	68.022	169.1478
615.000000	67.914	168.9743
622.000000	67.795	168.9848
630.000000	67.664	169.2615
640.000000	67.543	169.8931
650.000000	67.484	170.5855
660.000000	67.468	171.1288
670.000000	67.466	171.4730
680.000000	67.463	171.6871
690.000000	67.456	171.8352
700.000000	67.449	171.9097
710.000000	67.434	171.8851
720.000000	67.403	171.7977
730.000000	67.350	171.7339
740.000000	67.279	171.7710
750.000000	67.201	171.9484
762.000000	67.109	172.3455
775.000000	67.023	172.9446
788.000000	66.954	173.6568
800.000000	66.904	174.4060
812.000000	66.866	175.2701
825.000000	66.851	176.3633
838.000000	66.882	177.5742
850.000000	66.966	178.6531
862.000000	67.096	179.5211
875.000000	67.263	-179.8865
885.000000	67.393	-179.6714
900.000000	67.576	-179.6557
912.000000	67.708	-179.8495
925.000000	67.834	179.7444
938.000000	67.930	179.1585
950.000000	67.984	178.5480
962.000000	68.009	177.9624
975.000000	68.009	177.4180
988.000000	67.994	177.0048
1000.000000	67.977	176.7329
1015.000000	67.961	176.4537
1030.000000	67.944	176.1638
1044.000000	67.917	175.9143
1060.000000	67.878	175.7149
1075.000000	67.842	175.6095
1090.000000	67.810	175.5129
1106.000000	67.771	175.4137
1120.000000	67.733	175.3955
1138.000000	67.698	175.4090
1150.000000	67.679	175.3638
1172.000000	67.623	175.1911
1180.000000	67.594	175.1357
1206.000000	67.476	175.0898
1220.000000	67.403	175.1710
1241.000000	67.292	175.4357
1250.000000	67.246	175.5935
1265.000000	67.171	175.8900
1280.000000	67.095	176.2243
1315.000000	66.912	177.3391
1320.000000	66.889	177.5367
1340.000000	66.805	178.3814
1360.000000	66.736	179.2993
1380.000000	66.683	-179.7042
1400.000000	66.651	-178.6908
1430.000000	66.623	-177.2440
1450.000000	66.613	-176.3010
1475.000000	66.603	-175.2022
1500.000000	66.571	-174.0937
1525.000000	66.519	-172.7670
1550.000000	66.470	-171.1116
1575.000000	66.447	-169.1038
1600.000000	66.482	-166.6862
1625.000000	66.639	-164.0129
1650.000000	66.931	-161.7089
1675.000000	67.266	-160.2802
1700.000000	67.559	-159.4911
1725.000000	67.810	-158.9558
1750.000000	68.031	-158.6091
1775.000000	68.213	-158.4205
1800.000000	68.359	-158.2399
1825.000000	68.487	-157.9901
1850.000000	68.602	-157.6553
1875.000000	68.712	-157.2439
1900.000000	68.817	-156.7912
1925.000000	68.909	-156.2795
1950.000000	68.984	-155.6341
1975.000000	69.047	-154.7303
2000.000000	69.126	-153.4993
2030.000000	69.277	-151.7043
2060.000000	69.500	-149.7785
2090.000000	69.795	-147.8336
2120.000000	70.175	-145.9572
2140.000000	70.476	-144.8439
2180.000000	71.167	-143.3069
2200.000000	71.532	-143.0052
2240.000000	72.219	-143.4057
2270.000000	72.656	-144.3884
2300.000000	73.007	-145.6533
2330.000000	73.282	-146.9079
2360.000000	73.507	-147.9631
2400.000000	73.770	-148.9709
2430.000000	73.963	-149.4350
2470.000000	74.243	-149.6883
2500.000000	74.493	-149.6781
2540.000000	74.897	-149.6209
2580.000000	75.382	-149.7542
2620.000000	75.934	-150.2945
2650.000000	76.377	-151.1168
2690.000000	76.967	-152.9395
2720.000000	77.377	-154.8801
2760.000000	77.837	-158.1131
2800.000000	78.176	-161.7145
2850.000000	78.463	-166.1507
2900.000000	78.657	-170.2836
2950.000000	78.804	-174.1275
3000.000000	78.925	-177.8489
3040.000000	79.003	179.1577
3070.000000	79.046	176.8545
3110.000000	79.073	173.6849
3150.000000	79.049	170.4448
3200.000000	78.936	166.4886
3250.000000	78.748	162.8305
3300.000000	78.505	159.4756
3350.000000	78.212	156.4439
3400.000000	77.875	153.7624
3450.000000	77.497	151.4315
3500.000000	77.074	149.5322
3550.000000	76.610	148.2041
3600.000000	76.125	147.5775
3650.000000	75.654	147.6624
3700.000000	75.230	148.3467
3750.000000	74.875	149.4880
3820.000000	74.522	151.5384
3870.000000	74.377	153.0807
3950.000000	74.303	155.1661
4000.000000	74.313	156.0427
4060.000000	74.325	156.6837
4120.000000	74.302	157.1316
4180.000000	74.246	157.6922
4250.000000	74.168	158.7300
4310.000000	74.125	160.0399
4370.000000	74.141	161.7393
4440.000000	74.286	164.0750
4500.000000	74.550	166.1370
4550.000000	74.879	167.6812
4620.000000	75.484	169.2023
4680.000000	76.095	169.6272
4750.000000	76.857	168.9166
4820.000000	77.621	166.8535
4870.000000	78.146	164.5320
4940.000000	78.818	160.0433
5000.000000	79.297	155.0107
5080.000000	79.726	146.7021
5150.000000	79.838	138.3058
5220.000000	79.659	129.5404
5300.000000	79.081	120.2120
5380.000000	78.163	112.7356
5450.000000	77.168	108.1589
5520.000000	76.085	105.4065
5600.000000	74.847	104.1369
5700.000000	73.447	104.3880
5800.000000	72.282	105.4580
5900.000000	71.283	106.6736
6000.000000	70.342	108.1812
6080.000000	69.608	109.8479
6150.000000	68.994	111.6845
6220.000000	68.427	113.7904
6300.000000	67.847	116.3480
6400.000000	67.206	119.5405
6500.000000	66.605	122.7800
6600.000000	66.018	126.3922
6700.000000	65.478	130.6097
6800.000000	65.056	135.2785
6900.000000	64.789	139.9075
7000.000000	64.643	144.0722
7100.000000	64.549	147.6841
7200.000000	64.457	150.9543
7300.000000	64.360	154.1799
7400.000000	64.287	157.5045
7500.000000	64.266	160.8596
7620.000000	64.316	164.7418
7750.000000	64.451	168.6622
7880.000000	64.674	172.2603
8000.000000	64.967	175.2039
8120.000000	65.348	177.5955
8250.000000	65.838	179.2814
8380.000000	66.359	179.8631
8500.000000	66.858	179.5994
8620.000000	67.438	178.6345
8750.000000	68.203	175.9909
8850.000000	68.813	171.8647
9000.000000	69.474	161.0994
9120.000000	69.542	148.9739
9250.000000	68.985	134.5111
9380.000000	67.744	121.5554
9500.000000	66.076	112.5703
9620.000000	64.043	106.4655
9750.000000	61.581	101.8338
9880.000000	59.008	97.0417
10000.000000	56.756	89.9299
10150.000000	54.990	73.8748
10300.000000	55.854	48.6367
10440.000000	58.356	19.7267
10600.000000	61.191	-14.6286
10750.000000	63.030	-45.0996
10900.000000	63.951	-71.4291
11060.000000	64.107	-92.6624
11200.000000	63.770	-105.1066
11380.000000	62.973	-113.9044
11500.000000	62.355	-116.1265
11720.000000	61.379	-114.8077
11800.000000	61.149	-113.1847
12060.000000	61.054	-105.9207
12200.000000	61.473	-101.4921
12410.000000	62.776	-95.5310
12500.000000	63.535	-93.8497
12650.000000	64.890	-93.3158
12800.000000	66.121	-96.6023
13150.000000	67.312	-117.1569
13200.000000	67.241	-120.4806
13400.000000	66.459	-131.2958
13600.000000	65.224	-136.8819
13800.000000	64.002	-138.4894
14000.000000	63.081	-138.3093
14300.000000	62.397	-138.0007
14500.000000	62.310	-139.6453
14750.000000	62.250	-145.5431
15000.000000	61.713	-154.4521
15250.000000	60.296	-160.2090
15500.000000	58.136	-156.0579
15750.000000	56.367	-143.6051
16000.000000	56.393	-131.4742
16250.000000	57.749	-125.7137
16500.000000	59.310	-127.7051
16750.000000	60.556	-136.7579
17000.000000	61.248	-151.3999
17250.000000	61.256	-169.1838
17500.000000	60.558	173.0616
17750.000000	59.246	158.0359
18000.000000	57.484	147.1807
18250.000000	55.502	140.5316
18500.000000	53.647	136.7135
18750.000000	52.354	133.1708
19000.000000	51.851	126.9081
19250.000000	51.865	115.9594
19500.000000	51.928	100.9883
19750.000000	51.818	85.8147
