* Measurement data measured by REW V5.20.13
* Source: EXCL: Headset (USB-C to 3.5mm Headphone Jack Adapter), MICROPHONE (Master Volume), 0, volume: 0.260
* Format: 256k Log Swept Sine, 1 sweep at -12.0 dBFS with no timing reference
* Dated: Dec 5, 2023 8:40:37 PM
* REW Settings:
*  C-weighting compensation: Off
*  Target level: 75.0 dB
* Note: 
* Measurement: V-Moda Crossfade Wireless
* Smoothing: 1/12 octave
* Frequency Step: 1/48 octave
* Start Frequency: 20.000 Hz
*
* Freq(Hz)	SPL(dB)	Phase(degrees)
20.000000	56.157	-118.0833
20.299999	56.493	-119.0698
20.600000	56.818	-119.9946
20.900000	57.135	-120.8208
21.200001	57.454	-121.5309
21.400000	57.670	-121.9449
21.799999	58.119	-122.6914
22.000000	58.350	-123.0577
22.400000	58.821	-123.8419
22.700001	59.171	-124.5135
23.000000	59.507	-125.2536
23.299999	59.823	-126.0299
23.600000	60.117	-126.7906
24.000000	60.479	-127.6811
24.299999	60.737	-128.2054
24.700001	61.081	-128.7016
25.000000	61.349	-128.9706
25.400000	61.721	-129.3068
25.799999	62.103	-129.7549
26.200001	62.472	-130.3869
26.500000	62.731	-130.9642
26.900000	63.047	-131.7903
27.200001	63.266	-132.3965
27.600000	63.545	-133.1421
28.000000	63.819	-133.8270
28.500000	64.165	-134.6745
29.000000	64.510	-135.5878
29.500000	64.853	-136.5809
30.000000	65.193	-137.6542
30.400000	65.461	-138.5844
30.700001	65.656	-139.3251
31.100000	65.905	-140.3455
31.500000	66.139	-141.3442
32.000000	66.422	-142.4692
32.500000	66.715	-143.4397
33.000000	67.028	-144.3696
33.500000	67.352	-145.4019
34.000000	67.664	-146.5866
34.500000	67.948	-147.8518
35.000000	68.207	-149.0768
35.500000	68.456	-150.1970
36.000000	68.710	-151.2501
36.500000	68.975	-152.3431
37.000000	69.240	-153.5776
37.500000	69.489	-154.9801
38.200001	69.791	-157.0792
38.700001	69.977	-158.5214
39.500000	70.263	-160.5741
40.000000	70.450	-161.7367
40.599998	70.685	-163.0957
41.200001	70.925	-164.4710
41.799999	71.162	-165.9003
42.500000	71.420	-167.6692
43.099998	71.610	-169.2572
43.700001	71.763	-170.8456
44.400002	71.902	-172.6093
45.000000	71.998	-174.0229
45.500000	72.069	-175.1483
46.200001	72.158	-176.6689
46.799999	72.233	-177.9365
47.500000	72.326	-179.4118
48.200001	72.425	179.0646
48.700001	72.493	177.9497
49.400002	72.576	176.4377
50.000000	72.639	175.2879
50.799999	72.729	174.0513
51.500000	72.829	173.1971
52.200001	72.952	172.4299
53.000000	73.109	171.4977
53.799999	73.264	170.3738
54.500000	73.381	169.2086
55.200001	73.478	167.9044
56.000000	73.572	166.2583
57.000000	73.672	163.9978
58.000000	73.766	161.5143
59.000000	73.804	158.8777
60.000000	73.749	156.9753
60.799999	73.732	156.3967
61.500000	73.790	156.2049
62.200001	73.886	155.9448
63.000000	73.988	155.5104
64.000000	74.075	154.9396
65.000000	74.123	154.3900
66.000000	74.147	153.8242
67.000000	74.169	153.1482
68.000000	74.198	152.2487
69.000000	74.228	151.1467
70.000000	74.260	149.9598
71.000000	74.296	148.7620
72.000000	74.329	147.5869
73.000000	74.346	146.4923
74.000000	74.345	145.5742
75.000000	74.340	144.8526
76.199997	74.347	144.0800
77.500000	74.360	143.1526
78.800003	74.358	142.0995
80.000000	74.334	141.0823
81.199997	74.287	140.0702
82.500000	74.205	139.0368
83.800003	74.095	138.1323
85.000000	73.969	137.4554
86.199997	73.824	137.0219
87.500000	73.662	136.9421
88.500000	73.558	137.1669
90.000000	73.469	137.7595
91.199997	73.463	138.2059
92.500000	73.499	138.4954
93.800003	73.557	138.5532
95.000000	73.611	138.4376
96.199997	73.654	138.2097
97.500000	73.686	137.8829
98.800003	73.706	137.4741
100.000000	73.716	137.0084
101.500000	73.713	136.3881
103.000000	73.695	135.8952
104.400002	73.665	135.6172
106.000000	73.602	135.4478
107.500000	73.511	135.3210
109.000000	73.411	135.1343
110.599998	73.344	134.8435
112.000000	73.343	134.5350
113.800003	73.379	134.3216
115.000000	73.390	134.5029
117.199997	73.337	135.6488
118.000000	73.305	136.2175
120.599998	73.261	137.3425
122.000000	73.270	137.0952
124.099998	73.298	136.1255
125.000000	73.312	135.6754
126.500000	73.332	134.9890
128.000000	73.347	134.3868
131.500000	73.397	133.3011
132.000000	73.411	133.2427
134.000000	73.489	133.3695
136.000000	73.584	133.8035
138.000000	73.641	134.1030
140.000000	73.637	134.1429
143.000000	73.560	134.0568
145.000000	73.491	134.0850
147.500000	73.464	134.0289
150.000000	73.539	133.6595
152.500000	73.636	133.5668
155.000000	73.678	134.1166
157.500000	73.703	134.3366
160.000000	73.757	133.2970
162.500000	73.825	131.8458
165.000000	73.874	131.3224
167.500000	73.911	131.7181
170.000000	73.946	132.1012
172.500000	73.983	132.0499
175.000000	74.021	131.6872
177.500000	74.052	131.2184
180.000000	74.072	130.7460
182.500000	74.090	130.3091
185.000000	74.105	129.8951
187.500000	74.116	129.4785
190.000000	74.123	129.0660
192.500000	74.129	128.7010
195.000000	74.132	128.4073
197.500000	74.132	128.1464
200.000000	74.134	127.8530
203.000000	74.157	127.4014
206.000000	74.201	126.8344
209.000000	74.242	126.1676
212.000000	74.264	125.4001
214.000000	74.267	124.8513
218.000000	74.259	123.7699
220.000000	74.251	123.2570
224.000000	74.221	122.2488
227.000000	74.177	121.4547
230.000000	74.116	120.6085
233.000000	74.048	119.7428
236.000000	73.980	118.8839
240.000000	73.874	117.7372
243.000000	73.770	116.8859
247.000000	73.596	115.8912
250.000000	73.446	115.3509
254.000000	73.240	114.9456
258.000000	73.046	114.7867
262.000000	72.870	114.7284
265.000000	72.755	114.7526
269.000000	72.634	114.9086
272.000000	72.576	115.0551
276.000000	72.540	115.1048
280.000000	72.523	114.8366
285.000000	72.480	114.0410
290.000000	72.381	112.9295
295.000000	72.219	111.7611
300.000000	71.986	110.7427
304.000000	71.752	110.1895
307.000000	71.560	109.9926
311.000000	71.308	110.0400
315.000000	71.084	110.3812
320.000000	70.862	110.9779
325.000000	70.691	111.4511
330.000000	70.539	111.6758
335.000000	70.376	111.7326
340.000000	70.193	111.7469
345.000000	69.991	111.8083
350.000000	69.779	111.9623
355.000000	69.562	112.2049
360.000000	69.343	112.5255
365.000000	69.119	112.9366
370.000000	68.892	113.4438
375.000000	68.666	114.0421
382.000000	68.360	115.0212
387.000000	68.148	115.8177
395.000000	67.817	117.2310
400.000000	67.614	118.1903
406.000000	67.375	119.4257
412.000000	67.146	120.7538
418.000000	66.926	122.1557
425.000000	66.683	123.8373
431.000000	66.488	125.3235
437.000000	66.305	126.8719
444.000000	66.105	128.7431
450.000000	65.945	130.3844
455.000000	65.818	131.7755
462.000000	65.648	133.7582
468.000000	65.512	135.4812
475.000000	65.368	137.5114
482.000000	65.238	139.5688
487.000000	65.151	141.0541
494.000000	65.038	143.1564
500.000000	64.950	144.9894
508.000000	64.846	147.4664
515.000000	64.769	149.6408
522.000000	64.700	151.8212
530.000000	64.630	154.3277
538.000000	64.575	156.8373
545.000000	64.543	159.0206
552.000000	64.523	161.1920
560.000000	64.509	163.6786
570.000000	64.508	166.8156
580.000000	64.523	169.9619
590.000000	64.555	173.0854
600.000000	64.606	176.1776
608.000000	64.665	178.6251
615.000000	64.730	-179.2554
622.000000	64.805	-177.1609
630.000000	64.900	-174.8131
640.000000	65.029	-171.9696
650.000000	65.164	-169.2107
660.000000	65.303	-166.4890
670.000000	65.452	-163.7872
680.000000	65.614	-161.1141
690.000000	65.794	-158.4825
700.000000	65.988	-155.9101
710.000000	66.196	-153.4280
720.000000	66.414	-151.0574
730.000000	66.639	-148.7894
740.000000	66.869	-146.6110
750.000000	67.102	-144.5237
762.000000	67.387	-142.1452
775.000000	67.698	-139.7149
788.000000	68.010	-137.4306
800.000000	68.296	-135.4561
812.000000	68.580	-133.6029
825.000000	68.882	-131.7021
838.000000	69.178	-129.8893
850.000000	69.444	-128.2983
862.000000	69.703	-126.7949
875.000000	69.976	-125.2566
885.000000	70.181	-124.1236
900.000000	70.476	-122.4892
912.000000	70.700	-121.2316
925.000000	70.932	-119.9082
938.000000	71.155	-118.6171
950.000000	71.355	-117.4561
962.000000	71.549	-116.3268
975.000000	71.751	-115.1365
988.000000	71.945	-113.9715
1000.000000	72.114	-112.9095
1015.000000	72.314	-111.5980
1030.000000	72.500	-110.3159
1044.000000	72.662	-109.1466
1060.000000	72.828	-107.8163
1075.000000	72.968	-106.5325
1090.000000	73.096	-105.1798
1106.000000	73.228	-103.6791
1120.000000	73.340	-102.3516
1138.000000	73.470	-100.6149
1150.000000	73.551	-99.4096
1172.000000	73.702	-97.1121
1180.000000	73.759	-96.2696
1206.000000	73.943	-93.5665
1220.000000	74.036	-92.1327
1241.000000	74.165	-90.0017
1250.000000	74.217	-89.0953
1265.000000	74.296	-87.5937
1280.000000	74.366	-86.1012
1315.000000	74.486	-82.6276
1320.000000	74.498	-82.1271
1340.000000	74.531	-80.0964
1360.000000	74.544	-78.0112
1380.000000	74.539	-75.8758
1400.000000	74.519	-73.6935
1430.000000	74.459	-70.3076
1450.000000	74.403	-67.9564
1475.000000	74.316	-64.8948
1500.000000	74.216	-61.6877
1525.000000	74.107	-58.3397
1550.000000	73.991	-54.8539
1575.000000	73.873	-51.2277
1600.000000	73.755	-47.4760
1625.000000	73.640	-43.6235
1650.000000	73.526	-39.6953
1675.000000	73.410	-35.7048
1700.000000	73.287	-31.6320
1725.000000	73.158	-27.4318
1750.000000	73.028	-23.0647
1775.000000	72.904	-18.5225
1800.000000	72.790	-13.8230
1825.000000	72.690	-8.9776
1850.000000	72.604	-3.9821
1875.000000	72.537	1.1710
1900.000000	72.494	6.4877
1925.000000	72.483	11.9618
1950.000000	72.515	17.5586
1975.000000	72.595	23.2039
2000.000000	72.726	28.7930
2030.000000	72.933	35.3017
2060.000000	73.172	41.6164
2090.000000	73.449	47.9157
2120.000000	73.808	54.1956
2140.000000	74.102	58.2187
2180.000000	74.786	65.3700
2200.000000	75.142	68.3474
2240.000000	75.789	72.9908
2270.000000	76.139	75.5346
2300.000000	76.328	77.8312
2330.000000	76.377	80.6190
2360.000000	76.385	84.3587
2400.000000	76.513	90.2855
2430.000000	76.698	94.6031
2470.000000	76.946	99.8815
2500.000000	77.108	103.7687
2540.000000	77.325	109.0558
2580.000000	77.566	114.2948
2620.000000	77.808	119.2984
2650.000000	77.968	122.9005
2690.000000	78.133	127.6637
2720.000000	78.220	131.3822
2760.000000	78.309	136.8092
2800.000000	78.432	142.9586
2850.000000	78.763	151.3925
2900.000000	79.323	159.5732
2950.000000	79.975	166.7847
3000.000000	80.673	173.4257
3040.000000	81.301	178.3961
3070.000000	81.813	-178.2289
3110.000000	82.527	-174.4100
3150.000000	83.235	-171.5253
3200.000000	84.045	-169.2135
3250.000000	84.740	-167.9786
3300.000000	85.337	-167.4024
3350.000000	85.864	-167.3730
3400.000000	86.321	-168.0023
3450.000000	86.682	-169.3557
3500.000000	86.917	-171.3468
3550.000000	87.005	-173.7474
3600.000000	86.943	-176.2518
3650.000000	86.747	-178.5839
3700.000000	86.444	179.4284
3750.000000	86.063	177.8376
3820.000000	85.447	176.1866
3870.000000	84.968	175.3037
3950.000000	84.141	174.2455
4000.000000	83.584	173.7995
4060.000000	82.873	173.5373
4120.000000	82.131	173.5962
4180.000000	81.380	173.8810
4250.000000	80.496	174.3123
4310.000000	79.713	174.7564
4370.000000	78.892	175.3767
4440.000000	77.881	176.4645
4500.000000	76.976	177.8242
4550.000000	76.200	179.3411
4620.000000	75.099	-177.8314
4680.000000	74.170	-174.7246
4750.000000	73.153	-170.4509
4820.000000	72.245	-165.7437
4870.000000	71.673	-162.2553
4940.000000	70.982	-157.3582
5000.000000	70.488	-153.2694
5080.000000	69.942	-148.0479
5150.000000	69.559	-143.6422
5220.000000	69.273	-139.3610
5300.000000	69.092	-134.7178
5380.000000	69.085	-130.5856
5450.000000	69.216	-127.6817
5520.000000	69.447	-125.6978
5600.000000	69.775	-124.7251
5700.000000	70.192	-125.4368
5800.000000	70.540	-127.9991
5900.000000	70.785	-132.0177
6000.000000	70.909	-137.1412
6080.000000	70.917	-141.7634
6150.000000	70.874	-146.0331
6220.000000	70.808	-150.5332
6300.000000	70.712	-156.1794
6400.000000	70.492	-164.2314
6500.000000	70.040	-172.8052
6600.000000	69.319	179.4457
6700.000000	68.431	173.5476
6800.000000	67.571	169.5967
6900.000000	66.947	166.8398
7000.000000	66.677	164.0876
7100.000000	66.723	160.2568
7200.000000	66.945	154.7715
7300.000000	67.206	147.5873
7400.000000	67.416	139.0055
7500.000000	67.535	129.4995
7620.000000	67.558	117.5257
7750.000000	67.490	104.5900
7880.000000	67.459	92.3096
8000.000000	67.665	81.5621
8120.000000	68.271	70.5207
8250.000000	69.314	56.1688
8380.000000	70.369	37.4800
8500.000000	71.048	16.6834
8620.000000	71.369	-5.7319
8750.000000	71.429	-29.9667
8850.000000	71.388	-48.1391
9000.000000	71.314	-74.9761
9120.000000	71.276	-96.3870
9250.000000	71.291	-119.6658
9380.000000	71.405	-143.2924
9500.000000	71.608	-165.7624
9620.000000	71.880	170.8644
9750.000000	72.203	144.4318
9880.000000	72.522	116.9811
10000.000000	72.810	90.9532
10150.000000	73.208	57.6120
10300.000000	73.695	22.9684
10440.000000	74.188	-11.3909
10600.000000	74.603	-53.8540
10750.000000	74.623	-96.2443
10900.000000	74.145	-139.0837
11060.000000	73.097	177.6603
11200.000000	71.911	143.3106
11380.000000	70.572	102.5552
11500.000000	70.061	75.3427
11720.000000	69.703	21.5535
11800.000000	69.588	0.7527
12060.000000	68.908	-68.2672
12200.000000	68.460	-105.3737
12410.000000	67.966	-162.2657
12500.000000	67.800	172.2019
12650.000000	67.410	128.0383
12800.000000	66.669	83.4962
13150.000000	63.451	-8.4137
13200.000000	62.948	-19.8081
13400.000000	61.538	-63.7195
13600.000000	61.587	-109.8965
13800.000000	62.400	-163.3887
14000.000000	62.907	135.7543
14300.000000	62.521	40.9266
14500.000000	62.041	-20.1392
14750.000000	61.976	-97.4473
15000.000000	62.154	179.0852
15250.000000	61.906	90.0999
15500.000000	61.060	-1.1758
15750.000000	59.644	-92.2932
16000.000000	57.725	178.7390
16250.000000	55.419	93.4561
16500.000000	53.042	11.4368
16750.000000	51.179	-70.9927
17000.000000	50.163	-157.7534
17250.000000	49.785	109.5063
17500.000000	49.666	9.9688
17750.000000	49.520	-96.5159
18000.000000	49.232	150.2202
18250.000000	48.770	30.1533
18500.000000	48.190	-96.7258
18750.000000	47.592	129.8264
19000.000000	47.095	-9.2439
19250.000000	46.800	-150.6338
19500.000000	46.649	73.6274
19750.000000	46.571	-40.3569
