* Measurement data measured by REW V5.31.1
* Source: Frequency response averaged data
* Format: Averaged data produced from the rms magnitudes of R DCA E3, R DCA E3, R DCA E3
* Dated: Jun 30, 2024 11:59:57 AM
* REW Settings:
*  C-weighting compensation: Off
*  Target level: 75.0 dB
* Note: Averaged data produced from the rms magnitudes of R DCA E3, R DCA E3, R DCA E3
* Measurement: RMS Average 1
* Smoothing: 1/12 octave
* Frequency Step: 1/48 octave
* Start Frequency: 20.000 Hz
*
* Freq(Hz)	SPL(dB)
20.000000	79.999
20.299999	80.079
20.600000	80.159
20.900000	80.245
21.200001	80.344
21.400000	80.418
21.799999	80.578
22.000000	80.658
22.400000	80.808
22.700001	80.909
23.000000	81.006
23.299999	81.115
23.600000	81.248
24.000000	81.473
24.299999	81.671
24.700001	81.940
25.000000	82.119
25.400000	82.301
25.799999	82.412
26.200001	82.466
26.500000	82.485
26.900000	82.496
27.200001	82.498
27.600000	82.493
28.000000	82.480
28.500000	82.470
29.000000	82.485
29.500000	82.521
30.000000	82.542
30.400000	82.529
30.700001	82.500
31.100000	82.446
31.500000	82.388
32.000000	82.328
32.500000	82.283
33.000000	82.248
33.500000	82.221
34.000000	82.208
34.500000	82.212
35.000000	82.232
35.500000	82.267
36.000000	82.314
36.500000	82.372
37.000000	82.435
37.500000	82.500
38.200001	82.592
38.700001	82.659
39.500000	82.760
40.000000	82.811
40.599998	82.861
41.200001	82.907
41.799999	82.952
42.500000	83.010
43.099998	83.064
43.700001	83.125
44.400002	83.202
45.000000	83.269
45.500000	83.322
46.200001	83.393
46.799999	83.447
47.500000	83.497
48.200001	83.529
48.700001	83.540
49.400002	83.538
50.000000	83.517
50.799999	83.459
51.500000	83.381
52.200001	83.290
53.000000	83.186
53.799999	83.096
54.500000	83.035
55.200001	82.996
56.000000	82.987
57.000000	83.026
58.000000	83.105
59.000000	83.209
60.000000	83.312
60.799999	83.374
61.500000	83.411
62.200001	83.436
63.000000	83.459
64.000000	83.483
65.000000	83.499
66.000000	83.515
67.000000	83.544
68.000000	83.590
69.000000	83.642
70.000000	83.689
71.000000	83.727
72.000000	83.756
73.000000	83.779
74.000000	83.798
75.000000	83.813
76.199997	83.827
77.500000	83.833
78.800003	83.830
80.000000	83.817
81.199997	83.794
82.500000	83.759
83.800003	83.713
85.000000	83.659
86.199997	83.594
87.500000	83.513
88.500000	83.447
90.000000	83.342
91.199997	83.256
92.500000	83.165
93.800003	83.073
95.000000	82.984
96.199997	82.892
97.500000	82.792
98.800003	82.696
100.000000	82.609
101.500000	82.502
103.000000	82.392
104.400002	82.286
106.000000	82.154
107.500000	82.020
109.000000	81.882
110.599998	81.739
112.000000	81.622
113.800003	81.485
115.000000	81.403
117.199997	81.266
118.000000	81.221
120.599998	81.086
122.000000	81.012
124.099998	80.877
125.000000	80.809
126.500000	80.689
128.000000	80.575
131.500000	80.394
132.000000	80.379
134.000000	80.327
136.000000	80.263
138.000000	80.182
140.000000	80.090
143.000000	79.923
145.000000	79.797
147.500000	79.682
150.000000	79.622
152.500000	79.581
155.000000	79.536
157.500000	79.481
160.000000	79.410
162.500000	79.328
165.000000	79.248
167.500000	79.182
170.000000	79.131
172.500000	79.081
175.000000	79.022
177.500000	78.959
180.000000	78.905
182.500000	78.870
185.000000	78.849
187.500000	78.835
190.000000	78.831
192.500000	78.840
195.000000	78.862
197.500000	78.892
200.000000	78.927
203.000000	78.974
206.000000	79.023
209.000000	79.069
212.000000	79.122
214.000000	79.169
218.000000	79.277
220.000000	79.322
224.000000	79.392
227.000000	79.443
230.000000	79.490
233.000000	79.526
236.000000	79.557
240.000000	79.607
243.000000	79.645
247.000000	79.688
250.000000	79.712
254.000000	79.730
258.000000	79.768
262.000000	79.846
265.000000	79.914
269.000000	79.988
272.000000	80.022
276.000000	80.032
280.000000	80.028
285.000000	80.056
290.000000	80.106
295.000000	80.162
300.000000	80.221
304.000000	80.272
307.000000	80.313
311.000000	80.369
315.000000	80.425
320.000000	80.496
325.000000	80.567
330.000000	80.635
335.000000	80.699
340.000000	80.760
345.000000	80.822
350.000000	80.883
355.000000	80.939
360.000000	80.985
365.000000	81.023
370.000000	81.058
375.000000	81.099
382.000000	81.170
387.000000	81.224
395.000000	81.308
400.000000	81.366
406.000000	81.442
412.000000	81.522
418.000000	81.598
425.000000	81.676
431.000000	81.739
437.000000	81.803
444.000000	81.880
450.000000	81.948
455.000000	82.004
462.000000	82.076
468.000000	82.129
475.000000	82.184
482.000000	82.244
487.000000	82.290
494.000000	82.358
500.000000	82.415
508.000000	82.485
515.000000	82.544
522.000000	82.602
530.000000	82.664
538.000000	82.719
545.000000	82.762
552.000000	82.800
560.000000	82.833
570.000000	82.850
580.000000	82.836
590.000000	82.799
600.000000	82.748
608.000000	82.702
615.000000	82.660
622.000000	82.619
630.000000	82.571
640.000000	82.505
650.000000	82.442
660.000000	82.387
670.000000	82.331
680.000000	82.266
690.000000	82.193
700.000000	82.110
710.000000	82.021
720.000000	81.932
730.000000	81.843
740.000000	81.755
750.000000	81.667
762.000000	81.567
775.000000	81.475
788.000000	81.408
800.000000	81.370
812.000000	81.350
825.000000	81.332
838.000000	81.295
850.000000	81.244
862.000000	81.187
875.000000	81.141
885.000000	81.122
900.000000	81.120
912.000000	81.132
925.000000	81.148
938.000000	81.160
950.000000	81.160
962.000000	81.150
975.000000	81.129
988.000000	81.101
1000.000000	81.072
1015.000000	81.038
1030.000000	81.007
1044.000000	80.984
1060.000000	80.969
1075.000000	80.971
1090.000000	80.992
1106.000000	81.023
1120.000000	81.040
1138.000000	81.044
1150.000000	81.041
1172.000000	81.044
1180.000000	81.048
1206.000000	81.075
1220.000000	81.089
1241.000000	81.103
1250.000000	81.110
1265.000000	81.131
1280.000000	81.172
1315.000000	81.354
1320.000000	81.387
1340.000000	81.532
1360.000000	81.686
1380.000000	81.840
1400.000000	81.990
1430.000000	82.202
1450.000000	82.337
1475.000000	82.505
1500.000000	82.676
1525.000000	82.853
1550.000000	83.039
1575.000000	83.231
1600.000000	83.429
1625.000000	83.628
1650.000000	83.824
1675.000000	84.018
1700.000000	84.213
1725.000000	84.406
1750.000000	84.597
1775.000000	84.788
1800.000000	84.988
1825.000000	85.210
1850.000000	85.463
1875.000000	85.746
1900.000000	86.044
1925.000000	86.345
1950.000000	86.646
1975.000000	86.945
2000.000000	87.246
2030.000000	87.612
2060.000000	87.979
2090.000000	88.341
2120.000000	88.694
2140.000000	88.923
2180.000000	89.369
2200.000000	89.585
2240.000000	90.009
2270.000000	90.319
2300.000000	90.621
2330.000000	90.913
2360.000000	91.189
2400.000000	91.524
2430.000000	91.749
2470.000000	92.021
2500.000000	92.212
2540.000000	92.453
2580.000000	92.664
2620.000000	92.837
2650.000000	92.943
2690.000000	93.055
2720.000000	93.121
2760.000000	93.192
2800.000000	93.248
2850.000000	93.304
2900.000000	93.353
2950.000000	93.399
3000.000000	93.435
3040.000000	93.456
3070.000000	93.472
3110.000000	93.504
3150.000000	93.563
3200.000000	93.685
3250.000000	93.849
3300.000000	94.015
3350.000000	94.138
3400.000000	94.198
3450.000000	94.209
3500.000000	94.202
3550.000000	94.202
3600.000000	94.213
3650.000000	94.225
3700.000000	94.222
3750.000000	94.196
3820.000000	94.111
3870.000000	94.016
3950.000000	93.831
4000.000000	93.717
4060.000000	93.580
4120.000000	93.429
4180.000000	93.256
4250.000000	93.032
4310.000000	92.831
4370.000000	92.629
4440.000000	92.382
4500.000000	92.148
4550.000000	91.926
4620.000000	91.568
4680.000000	91.215
4750.000000	90.749
4820.000000	90.194
4870.000000	89.716
4940.000000	88.947
5000.000000	88.308
5080.000000	87.803
5150.000000	87.850
5220.000000	88.242
5300.000000	88.835
5380.000000	89.378
5450.000000	89.748
5520.000000	90.016
5600.000000	90.209
5700.000000	90.317
5800.000000	90.321
5900.000000	90.246
6000.000000	90.117
6080.000000	89.989
6150.000000	89.856
6220.000000	89.702
6300.000000	89.505
6400.000000	89.243
6500.000000	88.973
6600.000000	88.692
6700.000000	88.375
6800.000000	87.985
6900.000000	87.506
7000.000000	86.962
7100.000000	86.403
7200.000000	85.877
7300.000000	85.411
7400.000000	85.020
7500.000000	84.718
7620.000000	84.485
7750.000000	84.404
7880.000000	84.480
8000.000000	84.645
8120.000000	84.869
8250.000000	85.173
8380.000000	85.527
8500.000000	85.835
8620.000000	86.010
8750.000000	85.912
8850.000000	85.572
9000.000000	84.617
9120.000000	83.577
9250.000000	82.372
9380.000000	81.200
9500.000000	80.114
9620.000000	78.979
9750.000000	77.753
9880.000000	76.736
10000.000000	76.274
10150.000000	76.756
10300.000000	78.367
10440.000000	80.310
10600.000000	82.405
10750.000000	83.952
10900.000000	85.026
11060.000000	85.704
11200.000000	86.026
11380.000000	86.284
11500.000000	86.401
11720.000000	86.355
11800.000000	86.199
12060.000000	85.085
12200.000000	84.195
12410.000000	82.832
12500.000000	82.343
12650.000000	81.757
12800.000000	81.472
13150.000000	81.165
13200.000000	81.041
13400.000000	80.167
13600.000000	78.809
13800.000000	77.303
14000.000000	75.919
14300.000000	74.326
14500.000000	73.929
14750.000000	74.829
15000.000000	76.668
15250.000000	78.133
15500.000000	78.730
15750.000000	78.621
16000.000000	78.206
16250.000000	77.915
16500.000000	78.014
16750.000000	78.483
17000.000000	79.108
17250.000000	79.574
17500.000000	79.579
17750.000000	78.941
18000.000000	77.655
18250.000000	75.936
18500.000000	74.338
18750.000000	73.668
19000.000000	74.158
19250.000000	75.158
19500.000000	76.035
19750.000000	76.546
