* Measurement data measured by REW V5.31.1
* Source: Frequency response averaged data
* Format: Averaged data produced from the rms magnitudes of L DCA E3, L DCA E3, L DCA E3
* Dated: Jun 30, 2024 11:59:43 AM
* REW Settings:
*  C-weighting compensation: Off
*  Target level: 75.0 dB
* Note: Averaged data produced from the rms magnitudes of L DCA E3, L DCA E3, L DCA E3
* Measurement: RMS Average L
* Smoothing: 1/12 octave
* Frequency Step: 1/48 octave
* Start Frequency: 20.000 Hz
*
* Freq(Hz)	SPL(dB)
20.000000	79.768
20.299999	79.905
20.600000	80.023
20.900000	80.119
21.200001	80.196
21.400000	80.241
21.799999	80.323
22.000000	80.362
22.400000	80.436
22.700001	80.488
23.000000	80.536
23.299999	80.584
23.600000	80.634
24.000000	80.701
24.299999	80.749
24.700001	80.797
25.000000	80.815
25.400000	80.815
25.799999	80.796
26.200001	80.778
26.500000	80.777
26.900000	80.799
27.200001	80.834
27.600000	80.900
28.000000	80.978
28.500000	81.080
29.000000	81.170
29.500000	81.229
30.000000	81.249
30.400000	81.246
30.700001	81.244
31.100000	81.259
31.500000	81.302
32.000000	81.385
32.500000	81.465
33.000000	81.512
33.500000	81.530
34.000000	81.540
34.500000	81.555
35.000000	81.571
35.500000	81.575
36.000000	81.565
36.500000	81.550
37.000000	81.548
37.500000	81.570
38.200001	81.650
38.700001	81.740
39.500000	81.910
40.000000	82.005
40.599998	82.089
41.200001	82.147
41.799999	82.195
42.500000	82.253
43.099998	82.289
43.700001	82.303
44.400002	82.308
45.000000	82.325
45.500000	82.349
46.200001	82.381
46.799999	82.404
47.500000	82.438
48.200001	82.487
48.700001	82.525
49.400002	82.574
50.000000	82.615
50.799999	82.669
51.500000	82.710
52.200001	82.731
53.000000	82.722
53.799999	82.688
54.500000	82.647
55.200001	82.596
56.000000	82.524
57.000000	82.422
58.000000	82.332
59.000000	82.294
60.000000	82.317
60.799999	82.347
61.500000	82.359
62.200001	82.357
63.000000	82.345
64.000000	82.328
65.000000	82.306
66.000000	82.282
67.000000	82.271
68.000000	82.283
69.000000	82.323
70.000000	82.383
71.000000	82.446
72.000000	82.496
73.000000	82.531
74.000000	82.553
75.000000	82.564
76.199997	82.568
77.500000	82.567
78.800003	82.559
80.000000	82.545
81.199997	82.527
82.500000	82.502
83.800003	82.467
85.000000	82.422
86.199997	82.367
87.500000	82.295
88.500000	82.231
90.000000	82.124
91.199997	82.034
92.500000	81.936
93.800003	81.837
95.000000	81.747
96.199997	81.656
97.500000	81.551
98.800003	81.440
100.000000	81.331
101.500000	81.194
103.000000	81.058
104.400002	80.927
106.000000	80.774
107.500000	80.631
109.000000	80.496
110.599998	80.366
112.000000	80.267
113.800003	80.170
115.000000	80.122
117.199997	80.058
118.000000	80.034
120.599998	79.881
122.000000	79.787
124.099998	79.697
125.000000	79.666
126.500000	79.601
128.000000	79.513
131.500000	79.292
132.000000	79.269
134.000000	79.213
136.000000	79.211
138.000000	79.244
140.000000	79.286
143.000000	79.290
145.000000	79.230
147.500000	79.128
150.000000	79.067
152.500000	79.054
155.000000	79.051
157.500000	79.029
160.000000	78.994
162.500000	78.952
165.000000	78.909
167.500000	78.892
170.000000	78.883
172.500000	78.849
175.000000	78.786
177.500000	78.726
180.000000	78.697
182.500000	78.707
185.000000	78.738
187.500000	78.772
190.000000	78.804
192.500000	78.834
195.000000	78.862
197.500000	78.895
200.000000	78.938
203.000000	78.992
206.000000	79.040
209.000000	79.079
212.000000	79.113
214.000000	79.135
218.000000	79.185
220.000000	79.210
224.000000	79.262
227.000000	79.305
230.000000	79.345
233.000000	79.383
236.000000	79.428
240.000000	79.512
243.000000	79.589
247.000000	79.683
250.000000	79.734
254.000000	79.792
258.000000	79.861
262.000000	79.934
265.000000	79.982
269.000000	80.032
272.000000	80.060
276.000000	80.096
280.000000	80.137
285.000000	80.194
290.000000	80.249
295.000000	80.295
300.000000	80.298
304.000000	80.279
307.000000	80.275
311.000000	80.289
315.000000	80.308
320.000000	80.331
325.000000	80.353
330.000000	80.356
335.000000	80.345
340.000000	80.347
345.000000	80.362
350.000000	80.372
355.000000	80.363
360.000000	80.347
365.000000	80.338
370.000000	80.336
375.000000	80.342
382.000000	80.343
387.000000	80.323
395.000000	80.282
400.000000	80.280
406.000000	80.298
412.000000	80.314
418.000000	80.309
425.000000	80.296
431.000000	80.312
437.000000	80.355
444.000000	80.407
450.000000	80.444
455.000000	80.472
462.000000	80.507
468.000000	80.537
475.000000	80.571
482.000000	80.604
487.000000	80.627
494.000000	80.661
500.000000	80.690
508.000000	80.722
515.000000	80.738
522.000000	80.749
530.000000	80.762
538.000000	80.783
545.000000	80.806
552.000000	80.828
560.000000	80.850
570.000000	80.876
580.000000	80.899
590.000000	80.915
600.000000	80.925
608.000000	80.928
615.000000	80.916
622.000000	80.887
630.000000	80.835
640.000000	80.760
650.000000	80.689
660.000000	80.631
670.000000	80.589
680.000000	80.553
690.000000	80.510
700.000000	80.462
710.000000	80.416
720.000000	80.382
730.000000	80.365
740.000000	80.368
750.000000	80.386
762.000000	80.418
775.000000	80.452
788.000000	80.473
800.000000	80.480
812.000000	80.477
825.000000	80.463
838.000000	80.442
850.000000	80.422
862.000000	80.404
875.000000	80.397
885.000000	80.412
900.000000	80.479
912.000000	80.569
925.000000	80.687
938.000000	80.802
950.000000	80.889
962.000000	80.952
975.000000	80.992
988.000000	81.009
1000.000000	81.009
1015.000000	80.996
1030.000000	80.973
1044.000000	80.947
1060.000000	80.916
1075.000000	80.887
1090.000000	80.864
1106.000000	80.848
1120.000000	80.845
1138.000000	80.857
1150.000000	80.877
1172.000000	80.941
1180.000000	80.974
1206.000000	81.093
1220.000000	81.151
1241.000000	81.217
1250.000000	81.239
1265.000000	81.271
1280.000000	81.299
1315.000000	81.361
1320.000000	81.371
1340.000000	81.426
1360.000000	81.512
1380.000000	81.629
1400.000000	81.765
1430.000000	81.979
1450.000000	82.120
1475.000000	82.289
1500.000000	82.452
1525.000000	82.612
1550.000000	82.770
1575.000000	82.932
1600.000000	83.102
1625.000000	83.279
1650.000000	83.460
1675.000000	83.641
1700.000000	83.822
1725.000000	84.005
1750.000000	84.191
1775.000000	84.377
1800.000000	84.565
1825.000000	84.759
1850.000000	84.962
1875.000000	85.185
1900.000000	85.432
1925.000000	85.704
1950.000000	85.991
1975.000000	86.280
2000.000000	86.563
2030.000000	86.889
2060.000000	87.205
2090.000000	87.517
2120.000000	87.826
2140.000000	88.031
2180.000000	88.441
2200.000000	88.646
2240.000000	89.057
2270.000000	89.363
2300.000000	89.662
2330.000000	89.951
2360.000000	90.223
2400.000000	90.552
2430.000000	90.767
2470.000000	91.013
2500.000000	91.178
2540.000000	91.386
2580.000000	91.580
2620.000000	91.756
2650.000000	91.872
2690.000000	92.005
2720.000000	92.087
2760.000000	92.177
2800.000000	92.246
2850.000000	92.314
2900.000000	92.366
2950.000000	92.394
3000.000000	92.379
3040.000000	92.331
3070.000000	92.277
3110.000000	92.194
3150.000000	92.115
3200.000000	92.048
3250.000000	92.029
3300.000000	92.045
3350.000000	92.063
3400.000000	92.055
3450.000000	92.008
3500.000000	91.925
3550.000000	91.827
3600.000000	91.739
3650.000000	91.674
3700.000000	91.627
3750.000000	91.588
3820.000000	91.539
3870.000000	91.511
3950.000000	91.488
4000.000000	91.485
4060.000000	91.484
4120.000000	91.475
4180.000000	91.445
4250.000000	91.376
4310.000000	91.292
4370.000000	91.195
4440.000000	91.074
4500.000000	90.960
4550.000000	90.849
4620.000000	90.662
4680.000000	90.471
4750.000000	90.231
4820.000000	89.981
4870.000000	89.780
4940.000000	89.421
5000.000000	89.013
5080.000000	88.405
5150.000000	88.063
5220.000000	88.114
5300.000000	88.561
5380.000000	89.114
5450.000000	89.521
5520.000000	89.809
5600.000000	89.991
5700.000000	90.023
5800.000000	89.908
5900.000000	89.732
6000.000000	89.519
6080.000000	89.328
6150.000000	89.153
6220.000000	88.974
6300.000000	88.768
6400.000000	88.506
6500.000000	88.228
6600.000000	87.914
6700.000000	87.532
6800.000000	87.063
6900.000000	86.508
7000.000000	85.903
7100.000000	85.302
7200.000000	84.751
7300.000000	84.269
7400.000000	83.865
7500.000000	83.546
7620.000000	83.277
7750.000000	83.125
7880.000000	83.161
8000.000000	83.422
8120.000000	83.897
8250.000000	84.586
8380.000000	85.358
8500.000000	85.987
8620.000000	86.342
8750.000000	86.229
8850.000000	85.710
9000.000000	84.185
9120.000000	82.373
9250.000000	80.006
9380.000000	77.555
9500.000000	75.555
9620.000000	74.011
9750.000000	72.928
9880.000000	72.628
10000.000000	73.313
10150.000000	75.257
10300.000000	77.522
10440.000000	79.398
10600.000000	81.114
10750.000000	82.338
10900.000000	83.242
11060.000000	83.868
11200.000000	84.139
11380.000000	84.189
11500.000000	84.093
11720.000000	83.749
11800.000000	83.587
12060.000000	82.888
12200.000000	82.307
12410.000000	80.971
12500.000000	80.204
12650.000000	78.685
12800.000000	76.954
13150.000000	73.841
13200.000000	73.722
13400.000000	73.825
13600.000000	73.961
13800.000000	73.664
14000.000000	72.933
14300.000000	71.164
14500.000000	69.812
14750.000000	68.950
15000.000000	69.960
15250.000000	71.583
15500.000000	72.731
15750.000000	73.516
16000.000000	74.171
16250.000000	74.610
16500.000000	74.818
16750.000000	75.040
17000.000000	75.441
17250.000000	75.822
17500.000000	75.809
17750.000000	75.162
18000.000000	73.981
18250.000000	72.805
18500.000000	72.325
18750.000000	72.641
19000.000000	73.286
19250.000000	73.882
19500.000000	74.287
19750.000000	74.487
