* Measurement data measured by REW V5.20.13
* Source: EXCL: Headset (USB-C to 3.5mm Headphone Jack Adapter), MICROPHONE (Master Volume), 0, volume: 0.260
* Format: 256k Log Swept Sine, 1 sweep at -12.0 dBFS with no timing reference
* Dated: Nov 17, 2023 5:02:49 PM
* REW Settings:
*  C-weighting compensation: Off
*  Target level: 75.0 dB
* Note: 
* Measurement: Denon AH-D2000
* Smoothing: 1/12 octave
* Frequency Step: 1/48 octave
* Start Frequency: 20.000 Hz
*
* Freq(Hz)	SPL(dB)	Phase(degrees)
20.000000	66.113	166.7543
20.299999	66.282	164.6868
20.600000	66.452	162.7148
20.900000	66.624	160.7809
21.200001	66.795	158.8356
21.400000	66.904	157.5196
21.799999	67.102	154.8708
22.000000	67.190	153.5669
22.400000	67.347	151.0795
22.700001	67.460	149.3781
23.000000	67.584	147.8195
23.299999	67.732	146.3511
23.600000	67.909	144.8758
24.000000	68.182	142.6961
24.299999	68.393	140.7974
24.700001	68.646	137.8963
25.000000	68.792	135.5543
25.400000	68.919	132.4635
25.799999	68.988	129.7137
26.200001	69.044	127.4672
26.500000	69.105	126.0699
26.900000	69.231	124.3807
27.200001	69.357	123.0892
27.600000	69.536	121.1877
28.000000	69.697	119.0856
28.500000	69.844	116.4013
29.000000	69.942	113.9685
29.500000	70.028	111.8904
30.000000	70.130	110.0217
30.400000	70.221	108.5449
30.700001	70.287	107.4085
31.100000	70.365	105.8589
31.500000	70.424	104.3212
32.000000	70.472	102.5267
32.500000	70.511	100.9568
33.000000	70.567	99.5707
33.500000	70.653	98.2037
34.000000	70.756	96.6706
34.500000	70.848	94.9181
35.000000	70.908	93.0657
35.500000	70.937	91.2888
36.000000	70.955	89.6794
36.500000	70.979	88.2049
37.000000	71.014	86.7798
37.500000	71.054	85.3583
38.200001	71.109	83.4078
38.700001	71.148	82.0741
39.500000	71.220	80.0110
40.000000	71.266	78.7231
40.599998	71.316	77.1584
41.200001	71.349	75.5984
41.799999	71.362	74.1082
42.500000	71.362	72.5388
43.099998	71.365	71.3202
43.700001	71.374	70.1268
44.400002	71.384	68.7038
45.000000	71.383	67.5063
45.500000	71.379	66.5703
46.200001	71.378	65.3856
46.799999	71.392	64.4970
47.500000	71.441	63.5468
48.200001	71.525	62.4660
48.700001	71.580	61.5117
49.400002	71.604	60.0710
50.000000	71.573	59.0258
50.799999	71.513	58.0800
51.500000	71.476	57.4210
52.200001	71.439	56.6989
53.000000	71.378	55.8290
53.799999	71.318	54.9407
54.500000	71.282	54.0693
55.200001	71.268	53.0540
56.000000	71.283	51.6779
57.000000	71.339	49.6813
58.000000	71.426	47.4883
59.000000	71.472	45.0955
60.000000	71.366	43.3926
60.799999	71.244	43.2628
61.500000	71.200	43.7727
62.200001	71.219	44.3310
63.000000	71.267	44.7134
64.000000	71.311	44.7986
65.000000	71.327	44.5079
66.000000	71.323	43.9180
67.000000	71.319	43.1227
68.000000	71.331	42.2054
69.000000	71.364	41.2514
70.000000	71.408	40.3430
71.000000	71.453	39.5275
72.000000	71.481	38.8284
73.000000	71.488	38.2660
74.000000	71.482	37.7885
75.000000	71.470	37.3070
76.199997	71.458	36.6532
77.500000	71.455	35.8208
78.800003	71.461	34.9488
80.000000	71.477	34.2014
81.199997	71.498	33.5291
82.500000	71.521	32.8475
83.800003	71.537	32.1421
85.000000	71.542	31.4482
86.199997	71.545	30.7290
87.500000	71.555	29.9014
88.500000	71.565	29.2194
90.000000	71.569	28.2068
91.199997	71.562	27.4982
92.500000	71.549	26.8711
93.800003	71.539	26.3608
95.000000	71.537	25.9172
96.199997	71.539	25.4342
97.500000	71.543	24.8286
98.800003	71.542	24.1296
100.000000	71.532	23.4421
101.500000	71.506	22.6328
103.000000	71.475	21.9601
104.400002	71.449	21.4285
106.000000	71.421	20.8255
107.500000	71.389	20.1973
109.000000	71.351	19.5288
110.599998	71.313	18.8464
112.000000	71.288	18.3270
113.800003	71.258	17.8464
115.000000	71.239	17.6509
117.199997	71.219	17.2202
118.000000	71.216	16.9386
120.599998	71.206	15.4688
122.000000	71.189	14.6184
124.099998	71.166	13.8773
125.000000	71.163	13.7869
126.500000	71.164	13.8049
128.000000	71.156	13.8559
131.500000	71.086	13.6361
132.000000	71.074	13.5665
134.000000	71.029	13.2548
136.000000	70.979	12.9477
138.000000	70.911	12.6531
140.000000	70.827	12.3278
143.000000	70.730	11.7729
145.000000	70.704	11.3495
147.500000	70.688	10.8994
150.000000	70.678	10.6105
152.500000	70.672	10.3333
155.000000	70.666	9.9882
157.500000	70.661	9.6530
160.000000	70.654	9.3905
162.500000	70.636	9.2319
165.000000	70.620	9.0745
167.500000	70.612	8.7634
170.000000	70.600	8.3520
172.500000	70.582	8.0270
175.000000	70.560	7.8174
177.500000	70.534	7.6405
180.000000	70.506	7.4424
182.500000	70.479	7.2242
185.000000	70.455	7.0083
187.500000	70.434	6.7926
190.000000	70.421	6.5725
192.500000	70.417	6.3571
195.000000	70.414	6.1399
197.500000	70.399	5.9042
200.000000	70.368	5.6543
203.000000	70.326	5.3793
206.000000	70.293	5.1760
209.000000	70.271	5.0239
212.000000	70.253	4.8578
214.000000	70.240	4.7227
218.000000	70.201	4.4105
220.000000	70.172	4.2433
224.000000	70.097	3.9152
227.000000	70.039	3.7564
230.000000	69.990	3.7209
233.000000	69.951	3.7552
236.000000	69.917	3.8023
240.000000	69.875	3.9091
243.000000	69.842	4.0618
247.000000	69.790	4.3414
250.000000	69.756	4.5676
254.000000	69.734	4.8857
258.000000	69.743	5.1598
262.000000	69.764	5.2987
265.000000	69.775	5.3447
269.000000	69.780	5.4332
272.000000	69.784	5.5070
276.000000	69.797	5.5282
280.000000	69.811	5.4532
285.000000	69.810	5.3819
290.000000	69.804	5.4437
295.000000	69.814	5.5043
300.000000	69.819	5.4813
304.000000	69.803	5.4489
307.000000	69.785	5.4409
311.000000	69.765	5.4817
315.000000	69.757	5.6005
320.000000	69.759	5.8219
325.000000	69.761	6.0510
330.000000	69.753	6.1937
335.000000	69.743	6.2038
340.000000	69.742	6.1500
345.000000	69.744	6.1635
350.000000	69.742	6.2728
355.000000	69.741	6.4282
360.000000	69.748	6.6040
365.000000	69.761	6.7915
370.000000	69.778	6.9772
375.000000	69.799	7.1391
382.000000	69.835	7.2858
387.000000	69.861	7.3564
395.000000	69.893	7.4918
400.000000	69.911	7.5934
406.000000	69.931	7.7058
412.000000	69.946	7.7590
418.000000	69.959	7.8060
425.000000	69.980	7.9749
431.000000	69.992	8.1843
437.000000	69.997	8.3696
444.000000	70.008	8.5607
450.000000	70.033	8.7341
455.000000	70.059	8.8723
462.000000	70.097	9.0456
468.000000	70.129	9.1962
475.000000	70.173	9.4211
482.000000	70.220	9.7214
487.000000	70.253	9.9500
494.000000	70.301	10.2389
500.000000	70.349	10.4436
508.000000	70.420	10.6606
515.000000	70.484	10.8095
522.000000	70.547	10.9085
530.000000	70.619	10.9636
538.000000	70.689	11.0183
545.000000	70.754	11.0499
552.000000	70.822	11.0494
560.000000	70.896	11.0365
570.000000	70.984	10.9924
580.000000	71.077	10.8676
590.000000	71.162	10.6868
600.000000	71.245	10.4789
608.000000	71.315	10.2747
615.000000	71.376	10.0595
622.000000	71.431	9.8243
630.000000	71.487	9.5508
640.000000	71.551	9.2162
650.000000	71.607	8.9080
660.000000	71.655	8.6359
670.000000	71.704	8.3549
680.000000	71.757	8.0320
690.000000	71.816	7.6573
700.000000	71.878	7.1859
710.000000	71.938	6.5790
720.000000	71.989	5.8323
730.000000	72.020	4.9486
740.000000	72.022	3.9357
750.000000	71.983	2.8085
762.000000	71.862	1.3783
775.000000	71.605	0.0546
788.000000	71.206	-0.3489
800.000000	70.779	0.7349
812.000000	70.447	3.2841
825.000000	70.353	6.8370
838.000000	70.539	9.9714
850.000000	70.838	11.8995
862.000000	71.156	12.9127
875.000000	71.465	13.2708
885.000000	71.668	13.2153
900.000000	71.914	12.8372
912.000000	72.067	12.4159
925.000000	72.198	11.9448
938.000000	72.309	11.5302
950.000000	72.407	11.2051
962.000000	72.509	10.8673
975.000000	72.612	10.3986
988.000000	72.690	9.8500
1000.000000	72.741	9.3617
1015.000000	72.787	8.8412
1030.000000	72.827	8.4119
1044.000000	72.864	8.0682
1060.000000	72.906	7.7111
1075.000000	72.942	7.3767
1090.000000	72.973	7.0350
1106.000000	72.998	6.6970
1120.000000	73.015	6.4505
1138.000000	73.037	6.1985
1150.000000	73.053	6.0582
1172.000000	73.084	5.8259
1180.000000	73.096	5.7446
1206.000000	73.136	5.4921
1220.000000	73.157	5.3647
1241.000000	73.188	5.1918
1250.000000	73.201	5.1255
1265.000000	73.222	5.0228
1280.000000	73.243	4.9255
1315.000000	73.288	4.6968
1320.000000	73.295	4.6646
1340.000000	73.319	4.5449
1360.000000	73.343	4.4409
1380.000000	73.368	4.3489
1400.000000	73.392	4.2685
1430.000000	73.426	4.1757
1450.000000	73.448	4.1364
1475.000000	73.477	4.1035
1500.000000	73.505	4.0762
1525.000000	73.531	4.0598
1550.000000	73.557	4.0601
1575.000000	73.584	4.0682
1600.000000	73.611	4.0808
1625.000000	73.638	4.1069
1650.000000	73.665	4.1367
1675.000000	73.690	4.1470
1700.000000	73.708	4.1375
1725.000000	73.709	4.1645
1750.000000	73.700	4.3672
1775.000000	73.708	4.7631
1800.000000	73.746	5.1358
1825.000000	73.790	5.4021
1850.000000	73.828	5.6318
1875.000000	73.860	5.8876
1900.000000	73.888	6.2002
1925.000000	73.921	6.5808
1950.000000	73.965	7.0208
1975.000000	74.023	7.4924
2000.000000	74.095	7.9570
2030.000000	74.194	8.4656
2060.000000	74.300	8.9150
2090.000000	74.410	9.3268
2120.000000	74.525	9.7260
2140.000000	74.607	9.9902
2180.000000	74.784	10.4973
2200.000000	74.881	10.7295
2240.000000	75.089	11.1313
2270.000000	75.260	11.3547
2300.000000	75.442	11.4846
2330.000000	75.633	11.5027
2360.000000	75.831	11.3976
2400.000000	76.101	11.0538
2430.000000	76.307	10.6302
2470.000000	76.582	9.8077
2500.000000	76.784	8.9631
2540.000000	77.039	7.4860
2580.000000	77.262	5.5581
2620.000000	77.428	3.1397
2650.000000	77.496	1.0142
2690.000000	77.477	-2.1193
2720.000000	77.359	-4.5095
2760.000000	77.044	-7.2975
2800.000000	76.572	-9.0335
2850.000000	75.875	-9.2374
2900.000000	75.194	-7.2738
2950.000000	74.695	-3.2679
3000.000000	74.577	1.7886
3040.000000	74.784	5.5571
3070.000000	75.070	7.8111
3110.000000	75.545	9.7615
3150.000000	76.033	10.3571
3200.000000	76.517	9.3945
3250.000000	76.775	7.4758
3300.000000	76.844	5.6909
3350.000000	76.812	4.4687
3400.000000	76.731	3.7672
3450.000000	76.617	3.5160
3500.000000	76.476	3.7712
3550.000000	76.327	4.6788
3600.000000	76.219	6.3524
3650.000000	76.226	8.6077
3700.000000	76.378	10.9747
3750.000000	76.652	13.0569
3820.000000	77.167	15.1254
3870.000000	77.578	15.8849
3950.000000	78.224	15.8287
4000.000000	78.577	15.1135
4060.000000	78.925	13.8107
4120.000000	79.189	12.2920
4180.000000	79.378	10.7858
4250.000000	79.526	9.2568
4310.000000	79.615	8.2632
4370.000000	79.697	7.5967
4440.000000	79.816	7.1873
4500.000000	79.963	7.0555
4550.000000	80.128	6.9857
4620.000000	80.427	6.7411
4680.000000	80.733	6.2291
4750.000000	81.127	5.1071
4820.000000	81.528	3.2854
4870.000000	81.796	1.5178
4940.000000	82.115	-1.5812
5000.000000	82.313	-4.7106
5080.000000	82.444	-9.2704
5150.000000	82.436	-13.3399
5220.000000	82.323	-17.2705
5300.000000	82.083	-21.4183
5380.000000	81.748	-25.0856
5450.000000	81.389	-27.8304
5520.000000	80.982	-30.0891
5600.000000	80.476	-32.0365
5700.000000	79.816	-33.4921
5800.000000	79.170	-33.9084
5900.000000	78.587	-33.4583
6000.000000	78.099	-32.3990
6080.000000	77.790	-31.2941
6150.000000	77.584	-30.2596
6220.000000	77.435	-29.2568
6300.000000	77.327	-28.2457
6400.000000	77.270	-27.3101
6500.000000	77.280	-26.8771
6600.000000	77.328	-27.1016
6700.000000	77.373	-28.0807
6800.000000	77.373	-29.7618
6900.000000	77.297	-31.9888
7000.000000	77.128	-34.5759
7100.000000	76.858	-37.3407
7200.000000	76.484	-40.1061
7300.000000	76.006	-42.7034
7400.000000	75.430	-44.9802
7500.000000	74.761	-46.7665
7620.000000	73.846	-47.9490
7750.000000	72.779	-47.6790
7880.000000	71.795	-46.0832
8000.000000	71.119	-44.9272
8120.000000	70.629	-46.2947
8250.000000	70.023	-53.2062
8380.000000	68.995	-69.5870
8500.000000	67.490	-98.8851
8620.000000	65.742	-146.9072
8750.000000	65.070	147.0988
8850.000000	65.972	101.2642
9000.000000	67.841	55.4119
9120.000000	68.865	34.5514
9250.000000	69.405	20.3062
9380.000000	69.475	10.3618
9500.000000	69.214	3.1498
9620.000000	68.680	-2.8752
9750.000000	67.783	-7.9762
9880.000000	66.519	-10.4775
10000.000000	65.009	-8.6326
10150.000000	62.808	2.2023
10300.000000	61.153	23.1804
10440.000000	61.689	47.0578
10600.000000	64.410	69.6354
10750.000000	67.236	80.3993
10900.000000	69.590	80.4199
11060.000000	71.325	70.9056
11200.000000	72.104	57.7842
11380.000000	72.132	39.9779
11500.000000	71.644	30.1163
11720.000000	70.088	18.9385
11800.000000	69.436	16.9857
12060.000000	67.675	14.7893
12200.000000	67.166	13.5014
12410.000000	66.739	8.2584
12500.000000	66.541	4.7227
12650.000000	66.078	-2.4376
12800.000000	65.435	-10.8506
13150.000000	63.335	-36.4328
13200.000000	62.964	-40.9012
13400.000000	61.292	-60.3262
13600.000000	59.582	-80.2603
13800.000000	58.998	-97.9844
14000.000000	60.647	-113.9719
14300.000000	64.396	-144.4248
14500.000000	66.084	-171.4296
14750.000000	66.958	154.2843
15000.000000	66.784	126.8080
15250.000000	66.017	107.9387
15500.000000	65.013	96.0713
15750.000000	64.066	89.3358
16000.000000	63.493	85.4681
16250.000000	63.393	81.8408
16500.000000	63.653	77.6771
16750.000000	64.332	72.4338
17000.000000	65.247	63.5443
17250.000000	65.968	49.8724
17500.000000	66.316	32.9032
17750.000000	66.358	14.2531
18000.000000	66.213	-5.7397
18250.000000	65.919	-27.5370
18500.000000	65.441	-51.3982
18750.000000	64.767	-77.2749
19000.000000	63.942	-105.2600
19250.000000	63.025	-135.3107
19500.000000	62.081	-166.0645
19750.000000	61.219	166.6002
