* Measurement data measured by REW V5.20.13
* Source: EXCL: Headset (USB-C to 3.5mm Headphone Jack Adapter), MICROPHONE (Master Volume), 0, volume: 0.260
* Format: 256k Log Swept Sine, 1 sweep at -12.0 dBFS with no timing reference
* Dated: Aug 31, 2023 5:54:10 PM
* REW Settings:
*  C-weighting compensation: Off
*  Target level: 75.0 dB
* Note: 
* Measurement: EAE Audio DH100
* Smoothing: 1/12 octave
* Frequency Step: 1/48 octave
* Start Frequency: 20.000 Hz
*
* Freq(Hz)	SPL(dB)	Phase(degrees)
20.000000	52.169	-123.8312
20.299999	52.370	-124.5328
20.600000	52.709	-124.6565
20.900000	53.201	-124.8954
21.200001	53.771	-125.9580
21.400000	54.131	-127.2945
21.799999	54.718	-131.2208
22.000000	54.917	-133.5555
22.400000	55.117	-138.1953
22.700001	55.135	-141.0976
23.000000	55.106	-143.2185
23.299999	55.089	-144.6599
23.600000	55.114	-145.6713
24.000000	55.217	-146.7797
24.299999	55.317	-147.6151
24.700001	55.441	-148.6415
25.000000	55.532	-149.1463
25.400000	55.700	-149.3122
25.799999	55.984	-149.1269
26.200001	56.390	-149.1579
26.500000	56.728	-149.6237
26.900000	57.154	-150.9164
27.200001	57.419	-152.2190
27.600000	57.694	-154.0265
28.000000	57.915	-155.5553
28.500000	58.190	-156.9684
29.000000	58.503	-158.2064
29.500000	58.824	-159.6484
30.000000	59.100	-161.2955
30.400000	59.280	-162.5806
30.700001	59.400	-163.4479
31.100000	59.552	-164.4511
31.500000	59.705	-165.3094
32.000000	59.906	-166.2502
32.500000	60.121	-167.1078
33.000000	60.352	-167.9532
33.500000	60.592	-168.8680
34.000000	60.828	-169.8863
34.500000	61.047	-170.9383
35.000000	61.258	-171.9255
35.500000	61.477	-172.8376
36.000000	61.710	-173.7771
36.500000	61.943	-174.8371
37.000000	62.157	-175.9890
37.500000	62.348	-177.1042
38.200001	62.601	-178.4174
38.700001	62.786	-179.1780
39.500000	63.095	179.8701
40.000000	63.303	179.5019
40.599998	63.593	179.2637
41.200001	63.931	178.9783
41.799999	64.272	178.3853
42.500000	64.605	177.3830
43.099998	64.831	176.5729
43.700001	65.030	175.9109
44.400002	65.244	175.1567
45.000000	65.397	174.4487
45.500000	65.504	173.8813
46.200001	65.653	173.1599
46.799999	65.799	172.4920
47.500000	65.987	171.5092
48.200001	66.186	170.3496
48.700001	66.338	169.4534
49.400002	66.557	168.0943
50.000000	66.731	166.8813
50.799999	66.920	165.5282
51.500000	67.075	164.9138
52.200001	67.267	164.7949
53.000000	67.537	164.8204
53.799999	67.808	164.6708
54.500000	68.023	164.4083
55.200001	68.227	163.9924
56.000000	68.445	163.1187
57.000000	68.661	161.3403
58.000000	68.791	159.0947
59.000000	68.824	157.3135
60.000000	68.951	157.1696
60.799999	69.278	157.5410
61.500000	69.655	157.3092
62.200001	70.001	156.4857
63.000000	70.315	155.3727
64.000000	70.633	154.3319
65.000000	70.921	153.6318
66.000000	71.187	152.9781
67.000000	71.427	152.2135
68.000000	71.644	151.3072
69.000000	71.846	150.2736
70.000000	72.035	149.1596
71.000000	72.207	148.0219
72.000000	72.356	146.9405
73.000000	72.480	146.0399
74.000000	72.600	145.3740
75.000000	72.731	144.8240
76.199997	72.892	144.1639
77.500000	73.065	143.5479
78.800003	73.270	143.1284
80.000000	73.501	142.8038
81.199997	73.757	142.4484
82.500000	74.039	141.9861
83.800003	74.295	141.4981
85.000000	74.509	141.1504
86.199997	74.720	140.9133
87.500000	74.969	140.6472
88.500000	75.178	140.2594
90.000000	75.484	139.2258
91.199997	75.707	138.2021
92.500000	75.942	137.1079
93.800003	76.174	136.0653
95.000000	76.368	135.1550
96.199997	76.531	134.3662
97.500000	76.692	133.7273
98.800003	76.874	133.2333
100.000000	77.091	132.7162
101.500000	77.424	131.7519
103.000000	77.782	130.3161
104.400002	78.052	128.6049
106.000000	78.204	126.7532
107.500000	78.240	125.5374
109.000000	78.243	124.5001
110.599998	78.229	123.2402
112.000000	78.222	122.2156
113.800003	78.313	121.3794
115.000000	78.466	120.9724
117.199997	78.831	120.0921
118.000000	78.959	119.7389
120.599998	79.295	118.7822
122.000000	79.443	118.5248
124.099998	79.668	118.2736
125.000000	79.764	118.1171
126.500000	79.924	117.7205
128.000000	80.087	117.1367
131.500000	80.487	115.2442
132.000000	80.540	114.9874
134.000000	80.732	114.2712
136.000000	80.916	113.9789
138.000000	81.109	113.5953
140.000000	81.296	112.6817
143.000000	81.524	110.5597
145.000000	81.647	109.2086
147.500000	81.801	107.9982
150.000000	82.003	107.2300
152.500000	82.250	106.4977
155.000000	82.492	105.6205
157.500000	82.705	104.5609
160.000000	82.894	103.3973
162.500000	83.074	102.2106
165.000000	83.246	101.0131
167.500000	83.409	99.8100
170.000000	83.571	98.5957
172.500000	83.731	97.3829
175.000000	83.883	96.1873
177.500000	84.028	94.9945
180.000000	84.168	93.7914
182.500000	84.300	92.6158
185.000000	84.425	91.5092
187.500000	84.546	90.4489
190.000000	84.660	89.3926
192.500000	84.766	88.3279
195.000000	84.866	87.2698
197.500000	84.961	86.2394
200.000000	85.052	85.2242
203.000000	85.150	83.9585
206.000000	85.232	82.6254
209.000000	85.303	81.3104
212.000000	85.368	80.0801
214.000000	85.410	79.3129
218.000000	85.484	77.9236
220.000000	85.518	77.3123
224.000000	85.586	76.2023
227.000000	85.644	75.4030
230.000000	85.707	74.6097
233.000000	85.773	73.8164
236.000000	85.839	73.0088
240.000000	85.923	71.9054
243.000000	85.984	71.0741
247.000000	86.064	69.9658
250.000000	86.119	69.1346
254.000000	86.187	68.0417
258.000000	86.246	66.9842
262.000000	86.296	65.9583
265.000000	86.328	65.2050
269.000000	86.366	64.2260
272.000000	86.392	63.5172
276.000000	86.426	62.6147
280.000000	86.458	61.7595
285.000000	86.495	60.7458
290.000000	86.519	59.7696
295.000000	86.534	58.8464
300.000000	86.550	58.0085
304.000000	86.567	57.3864
307.000000	86.581	56.9334
311.000000	86.600	56.3389
315.000000	86.617	55.7537
320.000000	86.634	55.0374
325.000000	86.648	54.3539
330.000000	86.659	53.7157
335.000000	86.669	53.1223
340.000000	86.679	52.5746
345.000000	86.690	52.0707
350.000000	86.702	51.6024
355.000000	86.715	51.1615
360.000000	86.729	50.7402
365.000000	86.744	50.3334
370.000000	86.758	49.9421
375.000000	86.773	49.5692
382.000000	86.793	49.0806
387.000000	86.808	48.7537
395.000000	86.831	48.2534
400.000000	86.845	47.9531
406.000000	86.860	47.6142
412.000000	86.876	47.3015
418.000000	86.891	47.0105
425.000000	86.908	46.6992
431.000000	86.923	46.4633
437.000000	86.937	46.2502
444.000000	86.955	46.0233
450.000000	86.971	45.8533
455.000000	86.985	45.7287
462.000000	87.007	45.5728
468.000000	87.026	45.4525
475.000000	87.047	45.3313
482.000000	87.070	45.2341
487.000000	87.088	45.1773
494.000000	87.114	45.1117
500.000000	87.137	45.0671
508.000000	87.168	45.0267
515.000000	87.196	45.0142
522.000000	87.225	45.0227
530.000000	87.261	45.0491
538.000000	87.300	45.0807
545.000000	87.335	45.1110
552.000000	87.371	45.1527
560.000000	87.413	45.2205
570.000000	87.467	45.3218
580.000000	87.522	45.4352
590.000000	87.575	45.5770
600.000000	87.629	45.7709
608.000000	87.676	45.9659
615.000000	87.719	46.1541
622.000000	87.766	46.3498
630.000000	87.822	46.5800
640.000000	87.897	46.8785
650.000000	87.977	47.1923
660.000000	88.060	47.5260
670.000000	88.147	47.8823
680.000000	88.238	48.2614
690.000000	88.335	48.6703
700.000000	88.440	49.1083
710.000000	88.555	49.5579
720.000000	88.679	50.0164
730.000000	88.814	50.4919
740.000000	88.962	50.9691
750.000000	89.125	51.4219
762.000000	89.338	51.9091
775.000000	89.591	52.3333
788.000000	89.863	52.6023
800.000000	90.125	52.6881
812.000000	90.394	52.6019
825.000000	90.687	52.2887
838.000000	90.970	51.7313
850.000000	91.214	51.0050
862.000000	91.432	50.0942
875.000000	91.628	48.9417
885.000000	91.741	47.9922
900.000000	91.842	46.6248
912.000000	91.860	45.7758
925.000000	91.833	45.3689
938.000000	91.805	45.7097
950.000000	91.843	46.6870
962.000000	91.999	48.0422
975.000000	92.318	49.4426
988.000000	92.750	50.2804
1000.000000	93.186	50.3356
1015.000000	93.711	49.4810
1030.000000	94.170	47.8818
1044.000000	94.531	46.0021
1060.000000	94.872	43.6393
1075.000000	95.135	41.3452
1090.000000	95.356	39.0375
1106.000000	95.552	36.5912
1120.000000	95.696	34.4660
1138.000000	95.846	31.7438
1150.000000	95.924	29.9385
1172.000000	96.017	26.7083
1180.000000	96.037	25.5848
1206.000000	96.071	22.1982
1220.000000	96.085	20.5010
1241.000000	96.103	17.9804
1250.000000	96.107	16.8854
1265.000000	96.102	15.0398
1280.000000	96.081	13.1880
1315.000000	95.962	8.9764
1320.000000	95.937	8.3958
1340.000000	95.822	6.1448
1360.000000	95.680	4.0333
1380.000000	95.514	2.0934
1400.000000	95.332	0.3461
1430.000000	95.043	-1.9205
1450.000000	94.848	-3.2353
1475.000000	94.604	-4.7137
1500.000000	94.356	-6.0282
1525.000000	94.104	-7.1730
1550.000000	93.852	-8.1523
1575.000000	93.602	-8.9794
1600.000000	93.354	-9.6677
1625.000000	93.109	-10.2312
1650.000000	92.870	-10.6829
1675.000000	92.634	-11.0299
1700.000000	92.403	-11.2781
1725.000000	92.176	-11.4365
1750.000000	91.954	-11.5107
1775.000000	91.734	-11.5005
1800.000000	91.518	-11.4066
1825.000000	91.307	-11.2316
1850.000000	91.102	-10.9783
1875.000000	90.901	-10.6501
1900.000000	90.706	-10.2473
1925.000000	90.516	-9.7705
1950.000000	90.334	-9.2255
1975.000000	90.158	-8.6188
2000.000000	89.988	-7.9479
2030.000000	89.793	-7.0426
2060.000000	89.612	-6.0247
2090.000000	89.450	-4.9293
2120.000000	89.306	-3.7945
2140.000000	89.218	-3.0188
2180.000000	89.065	-1.4338
2200.000000	88.997	-0.6371
2240.000000	88.877	0.9561
2270.000000	88.795	2.1710
2300.000000	88.722	3.4218
2330.000000	88.659	4.7113
2360.000000	88.606	6.0397
2400.000000	88.553	7.8820
2430.000000	88.529	9.3273
2470.000000	88.521	11.3529
2500.000000	88.540	12.9625
2540.000000	88.613	15.2433
2580.000000	88.771	17.6135
2620.000000	89.042	19.8212
2650.000000	89.315	21.0966
2690.000000	89.715	21.9437
2720.000000	89.986	21.9089
2760.000000	90.256	21.3136
2800.000000	90.431	20.6192
2850.000000	90.593	20.0241
2900.000000	90.759	19.5827
2950.000000	90.938	18.9817
3000.000000	91.101	18.0980
3040.000000	91.208	17.2455
3070.000000	91.275	16.5756
3110.000000	91.359	15.6583
3150.000000	91.446	14.6567
3200.000000	91.559	13.1534
3250.000000	91.668	11.1771
3300.000000	91.729	8.5382
3350.000000	91.682	5.3369
3400.000000	91.492	1.9636
3450.000000	91.167	-1.1906
3500.000000	90.735	-3.9243
3550.000000	90.214	-6.1733
3600.000000	89.606	-7.8044
3650.000000	88.919	-8.5283
3700.000000	88.209	-8.1693
3750.000000	87.560	-7.0624
3820.000000	86.792	-5.1578
3870.000000	86.311	-3.7438
3950.000000	85.626	-1.6427
4000.000000	85.222	-0.6234
4060.000000	84.712	0.2271
4120.000000	84.123	0.7705
4180.000000	83.393	1.3224
4250.000000	82.276	3.0001
4310.000000	81.039	6.9898
4370.000000	79.611	15.3716
4440.000000	78.267	32.2154
4500.000000	78.405	50.8137
4550.000000	79.638	65.6349
4620.000000	81.990	79.7698
4680.000000	83.798	83.9199
4750.000000	85.310	81.2704
4820.000000	86.115	74.3292
4870.000000	86.284	68.8658
4940.000000	86.047	62.7515
5000.000000	85.518	60.2409
5080.000000	84.628	62.4189
5150.000000	84.263	70.2153
5220.000000	85.035	81.3014
5300.000000	86.997	90.9264
5380.000000	88.930	91.7765
5450.000000	90.177	86.1143
5520.000000	90.992	77.1076
5600.000000	91.445	65.0348
5700.000000	91.357	49.4692
5800.000000	90.589	35.3197
5900.000000	89.225	24.4309
6000.000000	87.444	17.6530
6080.000000	85.873	14.8539
6150.000000	84.469	13.8654
6220.000000	83.072	13.9619
6300.000000	81.501	15.2153
6400.000000	79.594	18.2780
6500.000000	77.771	22.7502
6600.000000	76.048	28.3857
6700.000000	74.436	35.0187
6800.000000	72.961	42.4157
6900.000000	71.678	49.7918
7000.000000	70.513	56.4769
7100.000000	69.263	63.3201
7200.000000	67.857	71.6097
7300.000000	66.364	81.7616
7400.000000	64.854	94.0072
7500.000000	63.424	108.4327
7620.000000	62.041	127.9284
7750.000000	61.245	152.3851
7880.000000	62.174	-176.5967
8000.000000	64.980	-145.7265
8120.000000	68.242	-122.4671
8250.000000	71.294	-110.5793
8380.000000	73.618	-109.4234
8500.000000	75.125	-113.5541
8620.000000	76.141	-119.2845
8750.000000	76.889	-125.5049
8850.000000	77.253	-130.4704
9000.000000	77.317	-138.3383
9120.000000	76.856	-143.6057
9250.000000	75.849	-145.9751
9380.000000	74.470	-143.1138
9500.000000	73.186	-135.8089
9620.000000	72.338	-125.6671
9750.000000	72.268	-114.3242
9880.000000	72.886	-105.6167
10000.000000	73.584	-101.3847
10150.000000	74.173	-100.6422
10300.000000	74.224	-102.5704
10440.000000	73.639	-103.0802
10600.000000	72.346	-96.3601
10750.000000	71.409	-81.9156
10900.000000	71.736	-66.5185
11060.000000	72.740	-57.8611
11200.000000	73.159	-56.9746
11380.000000	72.654	-56.1659
11500.000000	71.871	-50.9198
11720.000000	71.169	-29.2345
11800.000000	71.631	-19.4296
12060.000000	74.841	5.6790
12200.000000	76.598	11.4047
12410.000000	78.717	11.8460
12500.000000	79.463	10.3237
12650.000000	80.560	6.6013
12800.000000	81.508	1.6511
13150.000000	83.022	-15.9469
13200.000000	83.128	-19.2572
13400.000000	83.176	-34.1344
13600.000000	82.544	-50.0709
13800.000000	81.171	-63.8298
14000.000000	79.038	-70.8486
14300.000000	74.681	-62.0596
14500.000000	71.732	-51.8209
14750.000000	69.405	-60.1131
15000.000000	68.177	-104.6980
15250.000000	68.426	-171.6560
15500.000000	70.776	129.7127
15750.000000	73.123	91.2759
16000.000000	74.479	65.5636
16250.000000	74.899	47.2059
16500.000000	74.735	34.3626
16750.000000	74.324	25.4669
17000.000000	74.008	18.7374
17250.000000	74.005	10.6437
17500.000000	73.994	-1.9389
17750.000000	73.576	-18.5398
18000.000000	72.654	-37.3792
18250.000000	71.209	-57.0079
18500.000000	69.230	-76.1339
18750.000000	66.748	-94.4738
19000.000000	63.850	-114.3932
19250.000000	60.739	-141.2543
19500.000000	57.643	-176.8872
19750.000000	54.709	146.8244
