* Measurement data measured by REW V5.20.13
* Source: EXCL: Headset (USB-C to 3.5mm Headphone Jack Adapter), MICROPHONE (Master Volume), 0, volume: 0.260
* Format: 256k Log Swept Sine, 1 sweep at -12.0 dBFS with no timing reference
* Dated: Nov 25, 2023 12:09:49 PM
* REW Settings:
*  C-weighting compensation: Off
*  Target level: 75.0 dB
* Note: 
* Measurement: Focal Elex R
* Smoothing: 1/12 octave
* Frequency Step: 1/48 octave
* Start Frequency: 20.000 Hz
*
* Freq(Hz)	SPL(dB)	Phase(degrees)
20.000000	64.204	166.4334
20.299999	64.422	164.7087
20.600000	64.640	162.9792
20.900000	64.850	161.2113
21.200001	65.046	159.4080
21.400000	65.166	158.2039
21.799999	65.381	155.8651
22.000000	65.479	154.7605
22.400000	65.668	152.7122
22.700001	65.816	151.3048
23.000000	65.976	149.9587
23.299999	66.148	148.6115
23.600000	66.330	147.2043
24.000000	66.571	145.1791
24.299999	66.740	143.5601
24.700001	66.940	141.3436
25.000000	67.072	139.7091
25.400000	67.230	137.6425
25.799999	67.384	135.7289
26.200001	67.542	133.9283
26.500000	67.664	132.6132
26.900000	67.826	130.8741
27.200001	67.943	129.5812
27.600000	68.088	127.9050
28.000000	68.224	126.3253
28.500000	68.389	124.5178
29.000000	68.559	122.8460
29.500000	68.736	121.2107
30.000000	68.907	119.5375
30.400000	69.033	118.1700
30.700001	69.119	117.1411
31.100000	69.224	115.7796
31.500000	69.319	114.4356
32.000000	69.428	112.7769
32.500000	69.527	111.1506
33.000000	69.623	109.5901
33.500000	69.728	108.1039
34.000000	69.855	106.6204
34.500000	70.000	105.0199
35.000000	70.142	103.2360
35.500000	70.256	101.3332
36.000000	70.332	99.4875
36.500000	70.379	97.8730
37.000000	70.416	96.5644
37.500000	70.463	95.5229
38.200001	70.557	94.3006
38.700001	70.638	93.4473
39.500000	70.763	91.9611
40.000000	70.827	90.9493
40.599998	70.886	89.6759
41.200001	70.932	88.3597
41.799999	70.974	87.0087
42.500000	71.030	85.3698
43.099998	71.087	83.8963
43.700001	71.149	82.3930
44.400002	71.225	80.6994
45.000000	71.294	79.3588
45.500000	71.350	78.3414
46.200001	71.415	77.1191
46.799999	71.457	76.3045
47.500000	71.494	75.5923
48.200001	71.516	74.9969
48.700001	71.520	74.5519
49.400002	71.504	73.7764
50.000000	71.470	72.8619
50.799999	71.386	71.1208
51.500000	71.258	69.0662
52.200001	71.039	66.8895
53.000000	70.710	65.3990
53.799999	70.542	65.6694
54.500000	70.716	66.3596
55.200001	71.094	66.1885
56.000000	71.521	64.8268
57.000000	71.904	62.9640
58.000000	72.196	62.0421
59.000000	72.490	61.6407
60.000000	72.721	60.5547
60.799999	72.751	59.1204
61.500000	72.668	57.9259
62.200001	72.543	56.9688
63.000000	72.418	56.0099
64.000000	72.322	54.7396
65.000000	72.291	53.3636
66.000000	72.308	52.0330
67.000000	72.354	50.9005
68.000000	72.409	49.9934
69.000000	72.453	49.2549
70.000000	72.477	48.5982
71.000000	72.482	47.9223
72.000000	72.475	47.1489
73.000000	72.464	46.2692
74.000000	72.459	45.3395
75.000000	72.467	44.4254
76.199997	72.496	43.3869
77.500000	72.528	42.3867
78.800003	72.552	41.5737
80.000000	72.567	40.9265
81.199997	72.577	40.2892
82.500000	72.587	39.5456
83.800003	72.597	38.7421
85.000000	72.609	37.9739
86.199997	72.623	37.2131
87.500000	72.638	36.4268
88.500000	72.648	35.8544
90.000000	72.661	35.0402
91.199997	72.668	34.4164
92.500000	72.676	33.7549
93.800003	72.687	33.0895
95.000000	72.698	32.4722
96.199997	72.709	31.8619
97.500000	72.717	31.2117
98.800003	72.718	30.5806
100.000000	72.713	30.0216
101.500000	72.708	29.3112
103.000000	72.705	28.5107
104.400002	72.696	27.7249
106.000000	72.684	26.9765
107.500000	72.688	26.4434
109.000000	72.697	25.9520
110.599998	72.697	25.4011
112.000000	72.688	24.8826
113.800003	72.680	24.1763
115.000000	72.684	23.6980
117.199997	72.702	22.8428
118.000000	72.703	22.5498
120.599998	72.652	21.7524
122.000000	72.605	21.4766
124.099998	72.569	21.1516
125.000000	72.573	20.9844
126.500000	72.594	20.6262
128.000000	72.613	20.1765
131.500000	72.574	19.0736
132.000000	72.562	18.9341
134.000000	72.515	18.4100
136.000000	72.483	17.9142
138.000000	72.459	17.4434
140.000000	72.434	17.0232
143.000000	72.403	16.4932
145.000000	72.390	16.1240
147.500000	72.376	15.4936
150.000000	72.367	14.5272
152.500000	72.365	13.3119
155.000000	72.342	12.3981
157.500000	72.310	12.2646
160.000000	72.301	12.4979
162.500000	72.298	12.5602
165.000000	72.280	12.3795
167.500000	72.249	12.1096
170.000000	72.219	11.8097
172.500000	72.194	11.4783
175.000000	72.169	11.1000
177.500000	72.141	10.6486
180.000000	72.111	10.1908
182.500000	72.088	9.8748
185.000000	72.073	9.7080
187.500000	72.056	9.5542
190.000000	72.037	9.3260
192.500000	72.023	9.0620
195.000000	72.009	8.8392
197.500000	71.988	8.6738
200.000000	71.960	8.5272
203.000000	71.926	8.3297
206.000000	71.906	8.1043
209.000000	71.900	7.8506
212.000000	71.893	7.5848
214.000000	71.883	7.4222
218.000000	71.857	7.1450
220.000000	71.846	7.0237
224.000000	71.824	6.7985
227.000000	71.808	6.6370
230.000000	71.794	6.4792
233.000000	71.780	6.3247
236.000000	71.766	6.1771
240.000000	71.747	6.0018
243.000000	71.731	5.8848
247.000000	71.712	5.7291
250.000000	71.698	5.6125
254.000000	71.681	5.4788
258.000000	71.666	5.3821
262.000000	71.653	5.2887
265.000000	71.642	5.1964
269.000000	71.625	5.0416
272.000000	71.612	4.9149
276.000000	71.597	4.7617
280.000000	71.583	4.6488
285.000000	71.561	4.5599
290.000000	71.532	4.5021
295.000000	71.506	4.4334
300.000000	71.494	4.4142
304.000000	71.494	4.4775
307.000000	71.491	4.5406
311.000000	71.485	4.5892
315.000000	71.479	4.5676
320.000000	71.474	4.4697
325.000000	71.462	4.3639
330.000000	71.447	4.3124
335.000000	71.432	4.2910
340.000000	71.417	4.2714
345.000000	71.405	4.2515
350.000000	71.397	4.2096
355.000000	71.392	4.1393
360.000000	71.391	4.0768
365.000000	71.391	4.0663
370.000000	71.387	4.1158
375.000000	71.379	4.1895
382.000000	71.365	4.2540
387.000000	71.354	4.2766
395.000000	71.336	4.3486
400.000000	71.327	4.4356
406.000000	71.324	4.5747
412.000000	71.326	4.7341
418.000000	71.328	4.8850
425.000000	71.328	5.0139
431.000000	71.328	5.1060
437.000000	71.331	5.2040
444.000000	71.335	5.3213
450.000000	71.340	5.4314
455.000000	71.347	5.5354
462.000000	71.358	5.6952
468.000000	71.367	5.8340
475.000000	71.379	5.9933
482.000000	71.391	6.1538
487.000000	71.402	6.2700
494.000000	71.418	6.4356
500.000000	71.431	6.5869
508.000000	71.450	6.8022
515.000000	71.469	6.9816
522.000000	71.493	7.1383
530.000000	71.527	7.2984
538.000000	71.562	7.4509
545.000000	71.592	7.5941
552.000000	71.621	7.7490
560.000000	71.655	7.9286
570.000000	71.699	8.1478
580.000000	71.746	8.3641
590.000000	71.793	8.5558
600.000000	71.839	8.7213
608.000000	71.876	8.8479
615.000000	71.910	8.9512
622.000000	71.945	9.0425
630.000000	71.984	9.1320
640.000000	72.030	9.2253
650.000000	72.069	9.3089
660.000000	72.103	9.4109
670.000000	72.135	9.5542
680.000000	72.167	9.7563
690.000000	72.206	10.0153
700.000000	72.253	10.2931
710.000000	72.308	10.5524
720.000000	72.367	10.7847
730.000000	72.427	10.9913
740.000000	72.486	11.1835
750.000000	72.545	11.3906
762.000000	72.623	11.6670
775.000000	72.722	11.9487
788.000000	72.827	12.1573
800.000000	72.925	12.2700
812.000000	73.018	12.3210
825.000000	73.110	12.3528
838.000000	73.197	12.4094
850.000000	73.280	12.4981
862.000000	73.371	12.5950
875.000000	73.474	12.6662
885.000000	73.555	12.6793
900.000000	73.672	12.6469
912.000000	73.761	12.6089
925.000000	73.855	12.5750
938.000000	73.948	12.5638
950.000000	74.040	12.5712
962.000000	74.137	12.5583
975.000000	74.245	12.4926
988.000000	74.354	12.3764
1000.000000	74.453	12.2200
1015.000000	74.570	11.9683
1030.000000	74.677	11.7211
1044.000000	74.775	11.5263
1060.000000	74.893	11.3253
1075.000000	75.012	11.1367
1090.000000	75.141	10.9155
1106.000000	75.286	10.5984
1120.000000	75.417	10.2238
1138.000000	75.582	9.5588
1150.000000	75.682	8.9818
1172.000000	75.815	7.7586
1180.000000	75.846	7.3342
1206.000000	75.920	6.2902
1220.000000	75.969	5.8857
1241.000000	76.065	5.2867
1250.000000	76.109	5.0055
1265.000000	76.184	4.5085
1280.000000	76.261	3.9968
1315.000000	76.475	2.6309
1320.000000	76.509	2.3730
1340.000000	76.628	1.1083
1360.000000	76.693	-0.3718
1380.000000	76.715	-1.7684
1400.000000	76.733	-3.1407
1430.000000	76.693	-5.6188
1450.000000	76.560	-7.1683
1475.000000	76.324	-8.3660
1500.000000	76.101	-8.9570
1525.000000	75.891	-9.1638
1550.000000	75.714	-8.9845
1575.000000	75.582	-8.6666
1600.000000	75.469	-8.2487
1625.000000	75.391	-7.6887
1650.000000	75.350	-7.1632
1675.000000	75.335	-6.6577
1700.000000	75.354	-6.2629
1725.000000	75.384	-6.1500
1750.000000	75.401	-6.2585
1775.000000	75.387	-6.6245
1800.000000	75.288	-7.0659
1825.000000	75.105	-6.9817
1850.000000	74.923	-6.1771
1875.000000	74.795	-4.9471
1900.000000	74.728	-3.4575
1925.000000	74.738	-1.8762
1950.000000	74.809	-0.5089
1975.000000	74.892	0.6406
2000.000000	74.991	1.8201
2030.000000	75.182	3.1451
2060.000000	75.418	3.8176
2090.000000	75.596	3.7341
2120.000000	75.643	3.4725
2140.000000	75.610	3.6320
2180.000000	75.557	5.3025
2200.000000	75.611	6.5542
2240.000000	75.874	8.6864
2270.000000	76.098	9.6531
2300.000000	76.284	10.4171
2330.000000	76.454	11.4066
2360.000000	76.672	12.7183
2400.000000	77.091	14.4937
2430.000000	77.484	15.4261
2470.000000	78.018	15.7396
2500.000000	78.366	15.4650
2540.000000	78.771	15.0054
2580.000000	79.173	14.6727
2620.000000	79.605	14.2621
2650.000000	79.940	13.7990
2690.000000	80.396	12.9752
2720.000000	80.749	12.2051
2760.000000	81.237	10.8788
2800.000000	81.735	9.0651
2850.000000	82.319	5.8394
2900.000000	82.762	1.7010
2950.000000	83.067	-2.6256
3000.000000	83.298	-7.0394
3040.000000	83.412	-10.7699
3070.000000	83.444	-13.6112
3110.000000	83.417	-17.3477
3150.000000	83.310	-20.9774
3200.000000	83.028	-25.0413
3250.000000	82.597	-27.6864
3300.000000	82.197	-28.4541
3350.000000	82.040	-28.2657
3400.000000	82.149	-28.6202
3450.000000	82.361	-30.4453
3500.000000	82.504	-33.6504
3550.000000	82.502	-37.6576
3600.000000	82.335	-41.8860
3650.000000	82.018	-45.9037
3700.000000	81.568	-49.4346
3750.000000	81.007	-52.2487
3820.000000	80.077	-54.6284
3870.000000	79.350	-54.9542
3950.000000	78.239	-52.9995
4000.000000	77.691	-50.6741
4060.000000	77.235	-47.4333
4120.000000	77.007	-44.0085
4180.000000	77.031	-41.0275
4250.000000	77.239	-39.3448
4310.000000	77.370	-39.4398
4370.000000	77.383	-40.2003
4440.000000	77.271	-41.2819
4500.000000	77.083	-42.1773
4550.000000	76.857	-42.7405
4620.000000	76.455	-42.9108
4680.000000	76.070	-42.3396
4750.000000	75.627	-40.8018
4820.000000	75.259	-38.4972
4870.000000	75.067	-36.6367
4940.000000	74.883	-34.0304
5000.000000	74.780	-31.8326
5080.000000	74.713	-28.9684
5150.000000	74.695	-26.7104
5220.000000	74.659	-24.4896
5300.000000	74.621	-21.3405
5380.000000	74.714	-17.3522
5450.000000	74.988	-13.4989
5520.000000	75.504	-9.4746
5600.000000	76.477	-5.2256
5700.000000	78.110	-2.8220
5800.000000	79.713	-6.0095
5900.000000	80.846	-15.0452
6000.000000	81.234	-27.7781
6080.000000	80.970	-37.9790
6150.000000	80.391	-45.4104
6220.000000	79.576	-50.8466
6300.000000	78.466	-54.4445
6400.000000	77.024	-55.5629
6500.000000	75.752	-54.4363
6600.000000	74.721	-52.3420
6700.000000	73.880	-49.6755
6800.000000	73.192	-46.5575
6900.000000	72.648	-43.0590
7000.000000	72.273	-39.3545
7100.000000	72.085	-35.8710
7200.000000	72.050	-33.0161
7300.000000	72.111	-31.0408
7400.000000	72.203	-30.0157
7500.000000	72.281	-29.8533
7620.000000	72.325	-30.7260
7750.000000	72.238	-32.9801
7880.000000	71.891	-35.9828
8000.000000	71.283	-38.1586
8120.000000	70.465	-38.5660
8250.000000	69.557	-36.6528
8380.000000	68.906	-33.4046
8500.000000	68.633	-30.7317
8620.000000	68.616	-29.3292
8750.000000	68.773	-30.0709
8850.000000	68.910	-32.7440
9000.000000	68.946	-40.5184
9120.000000	68.722	-49.9779
9250.000000	68.155	-63.5141
9380.000000	67.209	-80.6331
9500.000000	65.969	-99.5223
9620.000000	64.403	-120.6886
9750.000000	62.553	-144.8091
9880.000000	61.093	-168.3210
10000.000000	60.664	172.1868
10150.000000	61.393	152.4489
10300.000000	62.831	138.4319
10440.000000	64.433	129.7866
10600.000000	66.436	122.8292
10750.000000	68.326	116.2679
10900.000000	69.982	107.0903
11060.000000	71.173	93.0558
11200.000000	71.519	78.4626
11380.000000	70.972	61.5392
11500.000000	70.149	53.6705
11720.000000	68.359	45.9011
11800.000000	67.775	44.1676
12060.000000	66.363	37.2889
12200.000000	65.775	30.7758
12410.000000	64.769	14.5903
12500.000000	64.200	4.7043
12650.000000	62.981	-16.0510
12800.000000	61.475	-41.8157
13150.000000	59.859	-111.8901
13200.000000	60.179	-121.3584
13400.000000	62.292	-153.5275
13600.000000	64.725	-176.2235
13800.000000	66.903	166.6122
14000.000000	68.632	150.4131
14300.000000	70.243	123.6490
14500.000000	70.606	103.8994
14750.000000	70.173	78.9097
15000.000000	68.637	58.9897
15250.000000	65.994	53.1113
15500.000000	62.706	64.7729
15750.000000	60.397	82.2483
16000.000000	60.453	92.6169
16250.000000	61.747	94.0623
16500.000000	63.056	87.5309
16750.000000	63.784	74.4425
17000.000000	63.783	58.4431
17250.000000	63.213	42.7617
17500.000000	62.289	28.3820
17750.000000	61.142	15.2546
18000.000000	59.837	3.5131
18250.000000	58.492	-6.8400
18500.000000	57.342	-16.8462
18750.000000	56.595	-28.1061
19000.000000	56.350	-41.4849
19250.000000	56.718	-57.2145
19500.000000	57.619	-75.3278
19750.000000	58.606	-93.7261
