* Measurement data measured by REW V5.20.13
* Source: EXCL: Headset (USB-C to 3.5mm Headphone Jack Adapter), MICROPHONE (Master Volume), 0, volume: 0.260
* Format: 256k Log Swept Sine, 1 sweep at -12.0 dBFS with no timing reference
* Dated: Jul 4, 2023 6:13:53 PM
* REW Settings:
*  C-weighting compensation: Off
*  Target level: 75.0 dB
* Note: 
* Measurement: Koss ESP95X Stock Pads
* Smoothing: 1/12 octave
* Frequency Step: 1/48 octave
* Start Frequency: 20.000 Hz
*
* Freq(Hz)	SPL(dB)	Phase(degrees)
20.000000	67.398	-101.6008
20.299999	67.510	-102.0863
20.600000	67.628	-102.5847
20.900000	67.744	-103.1104
21.200001	67.847	-103.6345
21.400000	67.910	-103.9586
21.799999	68.024	-104.5362
22.000000	68.078	-104.8002
22.400000	68.183	-105.3418
22.700001	68.252	-105.8206
23.000000	68.301	-106.3822
23.299999	68.322	-106.9687
23.600000	68.315	-107.4930
24.000000	68.282	-107.9845
24.299999	68.267	-108.2182
24.700001	68.286	-108.5822
25.000000	68.324	-109.1494
25.400000	68.354	-110.5315
25.799999	68.277	-112.4614
26.200001	68.039	-114.2097
26.500000	67.774	-114.8217
26.900000	67.408	-114.2632
27.200001	67.238	-112.9419
27.600000	67.276	-110.7408
28.000000	67.602	-109.2679
28.500000	68.151	-109.6528
29.000000	68.567	-112.1488
29.500000	68.766	-115.3097
30.000000	68.826	-117.9289
30.400000	68.848	-119.4355
30.700001	68.872	-120.2972
31.100000	68.918	-121.2049
31.500000	68.980	-121.8969
32.000000	69.087	-122.5196
32.500000	69.231	-123.0334
33.000000	69.393	-123.6777
33.500000	69.534	-124.5340
34.000000	69.623	-125.4483
34.500000	69.667	-126.1963
35.000000	69.693	-126.6953
35.500000	69.727	-127.0292
36.000000	69.775	-127.3501
36.500000	69.830	-127.7757
37.000000	69.875	-128.3493
37.500000	69.896	-129.0227
38.200001	69.883	-129.9276
38.700001	69.857	-130.4465
39.500000	69.814	-131.1081
40.000000	69.784	-131.4541
40.599998	69.741	-131.7289
41.200001	69.711	-131.7909
41.799999	69.715	-131.7653
42.500000	69.753	-131.8992
43.099998	69.780	-132.2197
43.700001	69.786	-132.6058
44.400002	69.778	-133.0126
45.000000	69.772	-133.3378
45.500000	69.770	-133.6312
46.200001	69.765	-134.0704
46.799999	69.763	-134.4346
47.500000	69.773	-134.8659
48.200001	69.786	-135.3900
48.700001	69.778	-135.7901
49.400002	69.724	-136.1307
50.000000	69.657	-135.9382
50.799999	69.617	-134.9026
51.500000	69.676	-133.7069
52.200001	69.783	-132.7069
53.000000	69.887	-131.6956
53.799999	70.012	-130.4310
54.500000	70.209	-129.5222
55.200001	70.441	-129.5774
56.000000	70.608	-130.9732
57.000000	70.603	-133.6852
58.000000	70.420	-136.7333
59.000000	70.042	-139.2428
60.000000	69.591	-139.7743
60.799999	69.383	-139.0511
61.500000	69.337	-138.3112
62.200001	69.348	-137.6931
63.000000	69.362	-136.8830
64.000000	69.373	-135.2651
65.000000	69.432	-132.9396
66.000000	69.589	-130.3082
67.000000	69.864	-127.9897
68.000000	70.213	-126.5919
69.000000	70.549	-126.2678
70.000000	70.816	-126.6161
71.000000	71.010	-127.0770
72.000000	71.149	-127.1811
73.000000	71.276	-126.6018
74.000000	71.458	-125.3596
75.000000	71.734	-123.9462
76.199997	72.135	-122.8347
77.500000	72.567	-122.5136
78.800003	73.027	-122.8773
80.000000	73.480	-124.1012
81.199997	73.868	-126.2141
82.500000	74.159	-128.7198
83.800003	74.386	-130.8873
85.000000	74.564	-132.8965
86.199997	74.666	-135.1340
87.500000	74.669	-137.5390
88.500000	74.628	-139.1776
90.000000	74.559	-141.3453
91.199997	74.505	-142.8979
92.500000	74.441	-144.3174
93.800003	74.376	-145.4202
95.000000	74.320	-146.2226
96.199997	74.271	-146.9296
97.500000	74.227	-147.6854
98.800003	74.189	-148.4371
100.000000	74.158	-149.0745
101.500000	74.120	-149.7054
103.000000	74.077	-150.1466
104.400002	74.021	-150.4938
106.000000	73.929	-150.9212
107.500000	73.832	-151.3514
109.000000	73.760	-151.7647
110.599998	73.740	-152.1874
112.000000	73.755	-152.5402
113.800003	73.769	-152.8863
115.000000	73.757	-153.0494
117.199997	73.677	-153.2868
118.000000	73.638	-153.3604
120.599998	73.554	-153.5005
122.000000	73.563	-153.5994
124.099998	73.611	-153.8859
125.000000	73.629	-154.0274
126.500000	73.647	-154.2497
128.000000	73.653	-154.4458
131.500000	73.649	-154.8635
132.000000	73.647	-154.9232
134.000000	73.641	-155.1566
136.000000	73.645	-155.3673
138.000000	73.674	-155.5150
140.000000	73.730	-155.5945
143.000000	73.796	-155.7979
145.000000	73.774	-155.9579
147.500000	73.713	-156.0652
150.000000	73.675	-156.1840
152.500000	73.660	-156.3128
155.000000	73.646	-156.3733
157.500000	73.627	-156.3696
160.000000	73.621	-156.4072
162.500000	73.639	-156.6352
165.000000	73.667	-157.0550
167.500000	73.685	-157.4562
170.000000	73.684	-157.6568
172.500000	73.677	-157.6660
175.000000	73.673	-157.5939
177.500000	73.675	-157.5250
180.000000	73.679	-157.5170
182.500000	73.680	-157.5806
185.000000	73.683	-157.6837
187.500000	73.687	-157.7820
190.000000	73.690	-157.8499
192.500000	73.691	-157.8910
195.000000	73.694	-157.9188
197.500000	73.698	-157.9457
200.000000	73.702	-157.9797
203.000000	73.711	-158.0235
206.000000	73.727	-158.0648
209.000000	73.746	-158.1194
212.000000	73.768	-158.1897
214.000000	73.784	-158.2316
218.000000	73.800	-158.2685
220.000000	73.794	-158.2563
224.000000	73.774	-158.2077
227.000000	73.768	-158.1825
230.000000	73.772	-158.1559
233.000000	73.779	-158.0945
236.000000	73.788	-157.9883
240.000000	73.801	-157.9064
243.000000	73.812	-157.9871
247.000000	73.824	-158.1659
250.000000	73.831	-158.2407
254.000000	73.839	-158.2499
258.000000	73.848	-158.2184
262.000000	73.861	-158.2047
265.000000	73.871	-158.2169
269.000000	73.884	-158.2500
272.000000	73.894	-158.2722
276.000000	73.904	-158.2634
280.000000	73.904	-158.2076
285.000000	73.896	-158.1714
290.000000	73.885	-158.2051
295.000000	73.863	-158.2204
300.000000	73.849	-158.1950
304.000000	73.865	-158.1033
307.000000	73.886	-157.9881
311.000000	73.908	-157.8181
315.000000	73.918	-157.6648
320.000000	73.917	-157.4913
325.000000	73.913	-157.3040
330.000000	73.913	-157.0916
335.000000	73.915	-156.8987
340.000000	73.915	-156.7173
345.000000	73.915	-156.5218
350.000000	73.919	-156.3076
355.000000	73.933	-156.0862
360.000000	73.953	-155.8895
365.000000	73.971	-155.7273
370.000000	73.981	-155.5683
375.000000	73.990	-155.3847
382.000000	74.011	-155.0857
387.000000	74.036	-154.8594
395.000000	74.075	-154.4926
400.000000	74.092	-154.2768
406.000000	74.108	-154.0441
412.000000	74.126	-153.8210
418.000000	74.146	-153.5871
425.000000	74.174	-153.2843
431.000000	74.196	-152.9880
437.000000	74.209	-152.6199
444.000000	74.220	-152.0962
450.000000	74.240	-151.6200
455.000000	74.268	-151.2156
462.000000	74.323	-150.6467
468.000000	74.384	-150.1859
475.000000	74.463	-149.7077
482.000000	74.542	-149.2732
487.000000	74.595	-148.9521
494.000000	74.676	-148.4506
500.000000	74.766	-148.0194
508.000000	74.916	-147.5991
515.000000	75.059	-147.4436
522.000000	75.199	-147.4668
530.000000	75.345	-147.6573
538.000000	75.467	-147.9850
545.000000	75.551	-148.3589
552.000000	75.614	-148.7599
560.000000	75.669	-149.1999
570.000000	75.718	-149.6978
580.000000	75.742	-150.1038
590.000000	75.742	-150.3904
600.000000	75.728	-150.5246
608.000000	75.715	-150.5432
615.000000	75.704	-150.5266
622.000000	75.691	-150.4815
630.000000	75.672	-150.3639
640.000000	75.642	-150.0497
650.000000	75.622	-149.5250
660.000000	75.632	-148.8493
670.000000	75.683	-148.1171
680.000000	75.765	-147.4357
690.000000	75.862	-146.8830
700.000000	75.962	-146.4929
710.000000	76.056	-146.2474
720.000000	76.136	-146.0704
730.000000	76.200	-145.8664
740.000000	76.257	-145.5814
750.000000	76.317	-145.2177
762.000000	76.405	-144.7261
775.000000	76.518	-144.1584
788.000000	76.661	-143.5621
800.000000	76.821	-143.0999
812.000000	76.991	-142.8259
825.000000	77.169	-142.7167
838.000000	77.332	-142.7174
850.000000	77.475	-142.7381
862.000000	77.626	-142.7764
875.000000	77.798	-142.9041
885.000000	77.927	-143.0676
900.000000	78.110	-143.3747
912.000000	78.253	-143.6615
925.000000	78.408	-144.0462
938.000000	78.556	-144.5390
950.000000	78.683	-145.0506
962.000000	78.802	-145.5634
975.000000	78.926	-146.1267
988.000000	79.044	-146.7399
1000.000000	79.146	-147.3242
1015.000000	79.271	-148.0278
1030.000000	79.405	-148.7400
1044.000000	79.542	-149.5099
1060.000000	79.701	-150.6593
1075.000000	79.826	-152.0446
1090.000000	79.902	-153.6369
1106.000000	79.920	-155.3546
1120.000000	79.891	-156.7319
1138.000000	79.814	-158.2127
1150.000000	79.752	-159.0041
1172.000000	79.635	-160.1044
1180.000000	79.600	-160.4178
1206.000000	79.519	-161.5015
1220.000000	79.468	-162.1517
1241.000000	79.375	-162.9931
1250.000000	79.337	-163.3175
1265.000000	79.274	-163.8645
1280.000000	79.206	-164.4276
1315.000000	79.021	-165.8245
1320.000000	78.989	-166.0407
1340.000000	78.833	-166.8600
1360.000000	78.635	-167.4247
1380.000000	78.426	-167.6908
1400.000000	78.214	-167.7792
1430.000000	77.867	-167.4772
1450.000000	77.624	-166.8373
1475.000000	77.344	-165.4492
1500.000000	77.142	-163.5331
1525.000000	77.046	-161.3770
1550.000000	77.053	-159.2645
1575.000000	77.155	-157.4570
1600.000000	77.299	-156.2337
1625.000000	77.431	-155.4447
1650.000000	77.554	-154.9111
1675.000000	77.653	-154.7044
1700.000000	77.694	-154.5909
1725.000000	77.707	-154.2974
1750.000000	77.716	-153.9142
1775.000000	77.711	-153.5212
1800.000000	77.672	-152.9556
1825.000000	77.627	-151.9556
1850.000000	77.629	-150.5650
1875.000000	77.701	-149.0562
1900.000000	77.837	-147.5658
1925.000000	78.046	-146.2292
1950.000000	78.304	-145.3409
1975.000000	78.560	-144.9635
2000.000000	78.791	-144.9128
2030.000000	79.041	-145.1230
2060.000000	79.253	-145.6211
2090.000000	79.415	-146.2711
2120.000000	79.535	-146.9414
2140.000000	79.593	-147.4042
2180.000000	79.635	-148.1602
2200.000000	79.631	-148.2880
2240.000000	79.636	-147.9728
2270.000000	79.686	-147.3809
2300.000000	79.797	-146.6225
2330.000000	79.984	-145.9466
2360.000000	80.213	-145.6747
2400.000000	80.499	-145.8898
2430.000000	80.702	-146.1974
2470.000000	80.980	-146.8223
2500.000000	81.182	-147.4671
2540.000000	81.457	-148.5232
2580.000000	81.716	-150.1577
2620.000000	81.889	-152.1804
2650.000000	81.973	-153.7127
2690.000000	82.029	-155.7199
2720.000000	82.036	-157.0374
2760.000000	82.046	-158.5690
2800.000000	82.054	-160.0639
2850.000000	82.068	-161.7383
2900.000000	82.136	-163.5902
2950.000000	82.204	-166.2047
3000.000000	82.140	-169.5040
3040.000000	81.973	-172.1176
3070.000000	81.789	-173.9287
3110.000000	81.469	-175.9478
3150.000000	81.092	-177.3539
3200.000000	80.597	-178.2276
3250.000000	80.126	-178.2980
3300.000000	79.704	-177.7704
3350.000000	79.351	-176.8085
3400.000000	79.072	-175.6357
3450.000000	78.855	-174.3708
3500.000000	78.691	-173.0229
3550.000000	78.591	-171.5977
3600.000000	78.567	-170.2755
3650.000000	78.605	-169.2947
3700.000000	78.664	-168.8111
3750.000000	78.697	-168.7332
3820.000000	78.667	-168.8312
3870.000000	78.606	-168.7690
3950.000000	78.501	-168.2868
4000.000000	78.451	-167.8002
4060.000000	78.422	-167.0800
4120.000000	78.439	-166.3548
4180.000000	78.493	-165.7596
4250.000000	78.589	-165.2928
4310.000000	78.682	-165.1595
4370.000000	78.762	-165.2278
4440.000000	78.827	-165.3871
4500.000000	78.869	-165.4590
4550.000000	78.907	-165.4324
4620.000000	78.983	-165.3035
4680.000000	79.077	-165.2145
4750.000000	79.211	-165.2620
4820.000000	79.349	-165.4628
4870.000000	79.449	-165.5930
4940.000000	79.622	-165.6743
5000.000000	79.830	-165.7907
5080.000000	80.183	-166.4411
5150.000000	80.517	-167.7295
5220.000000	80.825	-169.7151
5300.000000	81.110	-172.6870
5380.000000	81.304	-176.1806
5450.000000	81.398	-179.5150
5520.000000	81.421	176.9866
5600.000000	81.362	172.8850
5700.000000	81.170	167.7300
5800.000000	80.856	162.5535
5900.000000	80.404	157.3310
6000.000000	79.767	152.3206
6080.000000	79.100	148.9341
6150.000000	78.416	146.7447
6220.000000	77.669	145.4055
6300.000000	76.782	144.9109
6400.000000	75.704	145.5735
6500.000000	74.734	147.0478
6600.000000	73.876	148.6578
6700.000000	73.037	150.2727
6800.000000	72.121	152.5789
6900.000000	71.152	156.2798
7000.000000	70.251	161.2847
7100.000000	69.490	167.1949
7200.000000	68.907	173.9713
7300.000000	68.598	-178.5407
7400.000000	68.648	-171.4007
7500.000000	68.935	-165.7472
7620.000000	69.358	-160.7289
7750.000000	69.941	-156.1084
7880.000000	70.811	-152.7245
8000.000000	71.738	-152.1951
8120.000000	72.574	-154.4440
8250.000000	73.343	-159.0938
8380.000000	74.061	-165.7768
8500.000000	74.639	-174.6487
8620.000000	74.963	173.3215
8750.000000	74.860	157.4752
8850.000000	74.426	144.2472
9000.000000	73.238	123.9926
9120.000000	71.885	107.8622
9250.000000	70.085	90.4612
9380.000000	68.047	72.6951
9500.000000	66.159	55.1211
9620.000000	64.616	35.5869
9750.000000	63.788	12.2592
9880.000000	63.981	-11.4644
10000.000000	64.840	-31.3167
10150.000000	66.468	-51.3113
10300.000000	68.453	-66.1772
10440.000000	70.466	-77.1473
10600.000000	72.754	-88.8899
10750.000000	74.639	-101.5344
10900.000000	76.033	-116.9458
11060.000000	76.811	-135.3127
11200.000000	76.877	-150.5443
11380.000000	76.313	-165.5623
11500.000000	75.728	-172.0052
11720.000000	74.760	-177.8400
11800.000000	74.550	-178.7430
12060.000000	74.606	179.5255
12200.000000	75.055	177.9189
12410.000000	76.037	172.5482
12500.000000	76.479	168.6710
12650.000000	77.103	159.6863
12800.000000	77.443	147.6606
13150.000000	76.466	115.1714
13200.000000	76.111	111.0909
13400.000000	74.291	97.9555
13600.000000	72.112	89.6820
13800.000000	69.970	85.2100
14000.000000	68.446	82.7200
14300.000000	68.560	74.4470
14500.000000	69.728	61.2442
14750.000000	71.298	35.2131
15000.000000	72.291	-0.0816
15250.000000	72.139	-39.9327
15500.000000	70.741	-76.4745
15750.000000	68.453	-106.9196
16000.000000	65.767	-135.5486
16250.000000	63.183	-168.8298
16500.000000	61.527	149.3965
16750.000000	61.730	101.6147
17000.000000	63.248	54.4862
17250.000000	64.762	11.8643
17500.000000	65.573	-25.8719
17750.000000	65.534	-57.9462
18000.000000	64.833	-83.2416
18250.000000	63.896	-102.4231
18500.000000	63.280	-118.5178
18750.000000	63.304	-135.8207
19000.000000	63.740	-157.6378
19250.000000	64.187	175.4586
19500.000000	64.455	145.8492
19750.000000	64.536	118.7710
