* Measurement data measured by REW V5.20.13
* Source: EXCL: Headset (USB-C to 3.5mm Headphone Jack Adapter), MICROPHONE (Master Volume), 0, volume: 0.260
* Format: 256k Log Swept Sine, 1 sweep at -12.0 dBFS with no timing reference
* Dated: Nov 18, 2023 5:51:57 PM
* REW Settings:
*  C-weighting compensation: Off
*  Target level: 75.0 dB
* Note: ESP95x Dekoni Elite Fenestrated Sheepskin
* Measurement: ESP95x Dekoni Fen Sheep
* Smoothing: 1/12 octave
* Frequency Step: 1/48 octave
* Start Frequency: 20.000 Hz
*
* Freq(Hz)	SPL(dB)	Phase(degrees)
20.000000	48.866	-158.0592
20.299999	50.031	-157.2349
20.600000	51.016	-158.2628
20.900000	51.795	-160.5264
21.200001	52.351	-163.5273
21.400000	52.591	-165.6808
21.799999	52.776	-169.5149
22.000000	52.748	-170.8314
22.400000	52.553	-171.8228
22.700001	52.417	-171.2085
23.000000	52.378	-169.9822
23.299999	52.453	-168.8142
23.600000	52.593	-168.2241
24.000000	52.746	-168.5161
24.299999	52.787	-169.1882
24.700001	52.767	-170.0867
25.000000	52.757	-170.6678
25.400000	52.808	-171.6620
25.799999	52.901	-173.3888
26.200001	52.953	-175.7183
26.500000	52.949	-177.3756
26.900000	52.984	-178.8217
27.200001	53.144	-179.2700
27.600000	53.633	-179.7308
28.000000	54.360	178.8536
28.500000	55.283	174.6229
29.000000	55.931	168.3183
29.500000	56.236	161.7858
30.000000	56.292	156.6071
30.400000	56.239	153.7779
30.700001	56.178	152.3839
31.100000	56.094	151.3912
31.500000	56.038	151.2793
32.000000	56.074	152.0804
32.500000	56.286	153.2786
33.000000	56.647	153.9537
33.500000	57.052	153.5202
34.000000	57.393	151.9802
34.500000	57.620	149.7328
35.000000	57.737	147.2792
35.500000	57.778	144.9729
36.000000	57.786	142.9276
36.500000	57.786	141.0892
37.000000	57.772	139.4646
37.500000	57.741	138.2974
38.200001	57.772	137.9813
38.700001	57.971	138.4966
39.500000	58.620	138.7059
40.000000	59.073	137.6299
40.599998	59.508	135.3044
41.200001	59.798	132.5926
41.799999	59.978	130.0063
42.500000	60.089	127.3707
43.099998	60.134	125.5256
43.700001	60.175	124.0180
44.400002	60.241	122.3375
45.000000	60.286	120.7791
45.500000	60.296	119.5427
46.200001	60.303	118.2188
46.799999	60.363	117.3582
47.500000	60.490	116.1214
48.200001	60.571	114.5253
48.700001	60.565	113.5388
49.400002	60.512	112.9152
50.000000	60.502	113.0668
50.799999	60.598	113.6243
51.500000	60.758	113.8291
52.200001	60.923	113.4421
53.000000	61.046	112.3754
53.799999	61.114	111.0297
54.500000	61.186	109.6487
55.200001	61.294	107.8553
56.000000	61.445	105.2734
57.000000	61.698	101.7558
58.000000	62.076	97.9482
59.000000	62.376	93.4506
60.000000	62.364	90.2292
60.799999	62.299	90.0665
61.500000	62.369	91.0008
62.200001	62.535	91.8665
63.000000	62.721	92.3525
64.000000	62.884	92.4988
65.000000	62.990	92.1921
66.000000	63.047	91.3315
67.000000	63.063	90.0565
68.000000	63.064	88.6603
69.000000	63.093	87.3620
70.000000	63.166	86.1588
71.000000	63.260	85.0010
72.000000	63.340	83.9563
73.000000	63.398	83.1380
74.000000	63.453	82.5283
75.000000	63.523	81.9509
76.199997	63.624	81.0897
77.500000	63.748	79.9049
78.800003	63.880	78.5079
80.000000	63.990	77.1227
81.199997	64.079	75.7920
82.500000	64.150	74.5029
83.800003	64.200	73.3752
85.000000	64.229	72.4493
86.199997	64.243	71.6416
87.500000	64.258	70.9295
88.500000	64.290	70.4438
90.000000	64.385	69.5160
91.199997	64.473	68.4507
92.500000	64.547	67.1454
93.800003	64.599	65.9229
95.000000	64.636	64.9648
96.199997	64.669	64.1730
97.500000	64.705	63.3730
98.800003	64.728	62.4823
100.000000	64.726	61.6000
101.500000	64.705	60.5835
103.000000	64.690	59.7347
104.400002	64.696	59.0883
106.000000	64.730	58.4642
107.500000	64.780	57.8704
109.000000	64.833	57.1863
110.599998	64.875	56.3931
112.000000	64.900	55.7192
113.800003	64.929	54.8682
115.000000	64.952	54.2428
117.199997	64.994	52.8911
118.000000	65.007	52.3825
120.599998	65.048	51.1888
122.000000	65.083	50.9376
124.099998	65.144	50.7790
125.000000	65.167	50.6773
126.500000	65.197	50.3382
128.000000	65.221	49.7521
131.500000	65.286	47.9910
132.000000	65.298	47.7630
134.000000	65.351	47.0024
136.000000	65.410	46.3959
138.000000	65.465	45.7692
140.000000	65.506	45.1072
143.000000	65.546	44.1720
145.000000	65.570	43.5529
147.500000	65.612	42.6841
150.000000	65.665	41.6917
152.500000	65.705	40.6859
155.000000	65.722	39.7355
157.500000	65.736	38.9420
160.000000	65.767	38.4161
162.500000	65.805	38.0684
165.000000	65.826	37.6287
167.500000	65.815	37.0010
170.000000	65.798	36.2976
172.500000	65.799	35.5334
175.000000	65.810	34.7168
177.500000	65.822	33.9469
180.000000	65.826	33.3410
182.500000	65.820	32.9592
185.000000	65.815	32.6915
187.500000	65.813	32.3795
190.000000	65.812	31.9901
192.500000	65.811	31.5782
195.000000	65.809	31.1896
197.500000	65.804	30.8258
200.000000	65.797	30.4641
203.000000	65.794	30.0239
206.000000	65.803	29.5873
209.000000	65.819	29.1552
212.000000	65.832	28.7231
214.000000	65.839	28.4426
218.000000	65.852	27.9248
220.000000	65.857	27.6861
224.000000	65.864	27.2296
227.000000	65.869	26.8864
230.000000	65.882	26.5034
233.000000	65.907	26.0522
236.000000	65.934	25.5705
240.000000	65.946	25.0232
243.000000	65.930	24.7777
247.000000	65.906	24.6069
250.000000	65.902	24.4785
254.000000	65.906	24.2338
258.000000	65.907	23.9316
262.000000	65.908	23.6420
265.000000	65.913	23.4773
269.000000	65.935	23.3970
272.000000	65.962	23.4390
276.000000	65.996	23.3975
280.000000	66.001	22.9792
285.000000	65.974	22.2115
290.000000	65.943	21.6009
295.000000	65.915	21.1364
300.000000	65.901	20.8538
304.000000	65.908	20.7689
307.000000	65.918	20.7248
311.000000	65.930	20.6248
315.000000	65.939	20.4637
320.000000	65.945	20.2443
325.000000	65.940	20.1059
330.000000	65.934	20.0341
335.000000	65.937	19.9534
340.000000	65.947	19.8431
345.000000	65.954	19.7032
350.000000	65.955	19.5397
355.000000	65.952	19.3823
360.000000	65.952	19.2830
365.000000	65.959	19.2666
370.000000	65.964	19.2780
375.000000	65.968	19.2635
382.000000	65.985	19.2061
387.000000	66.001	19.1725
395.000000	66.019	19.1785
400.000000	66.026	19.2034
406.000000	66.037	19.2556
412.000000	66.053	19.3401
418.000000	66.073	19.4592
425.000000	66.103	19.6944
431.000000	66.135	19.9793
437.000000	66.175	20.2849
444.000000	66.232	20.6320
450.000000	66.289	20.9277
455.000000	66.347	21.1655
462.000000	66.445	21.4543
468.000000	66.541	21.6395
475.000000	66.658	21.7559
482.000000	66.776	21.7626
487.000000	66.861	21.7128
494.000000	66.988	21.5739
500.000000	67.107	21.3730
508.000000	67.261	20.9560
515.000000	67.375	20.4622
522.000000	67.466	19.8959
530.000000	67.543	19.2180
538.000000	67.601	18.5587
545.000000	67.642	18.0120
552.000000	67.679	17.4612
560.000000	67.719	16.7823
570.000000	67.754	15.9203
580.000000	67.760	15.2070
590.000000	67.754	14.6880
600.000000	67.754	14.3191
608.000000	67.759	14.0698
615.000000	67.761	13.8203
622.000000	67.756	13.5252
630.000000	67.736	13.1994
640.000000	67.699	12.9470
650.000000	67.665	12.8972
660.000000	67.643	12.9493
670.000000	67.623	13.0439
680.000000	67.606	13.2352
690.000000	67.604	13.5323
700.000000	67.621	13.8569
710.000000	67.647	14.1680
720.000000	67.673	14.5311
730.000000	67.702	15.0521
740.000000	67.753	15.7449
750.000000	67.840	16.5138
762.000000	67.998	17.3614
775.000000	68.223	18.0239
788.000000	68.480	18.2980
800.000000	68.714	18.1783
812.000000	68.924	17.8116
825.000000	69.127	17.3009
838.000000	69.319	16.7673
850.000000	69.496	16.2353
862.000000	69.674	15.6041
875.000000	69.859	14.7652
885.000000	69.991	14.0380
900.000000	70.172	12.9080
912.000000	70.312	11.9537
925.000000	70.461	10.7755
938.000000	70.593	9.4113
950.000000	70.687	8.0150
962.000000	70.744	6.5657
975.000000	70.771	5.0419
988.000000	70.774	3.6057
1000.000000	70.762	2.3361
1015.000000	70.725	0.8067
1030.000000	70.662	-0.6665
1044.000000	70.570	-1.9804
1060.000000	70.413	-3.2931
1075.000000	70.220	-4.1187
1090.000000	70.013	-4.3702
1106.000000	69.824	-4.0056
1120.000000	69.727	-3.2702
1138.000000	69.734	-2.1940
1150.000000	69.809	-1.6928
1172.000000	70.008	-1.5283
1180.000000	70.083	-1.6838
1206.000000	70.304	-2.8738
1220.000000	70.382	-3.8990
1241.000000	70.415	-5.5824
1250.000000	70.407	-6.2682
1265.000000	70.378	-7.3816
1280.000000	70.321	-8.4664
1315.000000	70.081	-10.2482
1320.000000	70.044	-10.3940
1340.000000	69.909	-10.8204
1360.000000	69.794	-11.1647
1380.000000	69.681	-11.4795
1400.000000	69.570	-11.6656
1430.000000	69.426	-11.7836
1450.000000	69.331	-11.8339
1475.000000	69.203	-11.7006
1500.000000	69.106	-11.2618
1525.000000	69.073	-10.8212
1550.000000	69.082	-10.6308
1575.000000	69.103	-10.8102
1600.000000	69.089	-11.4092
1625.000000	68.984	-12.1781
1650.000000	68.787	-12.5261
1675.000000	68.569	-12.1654
1700.000000	68.397	-11.3157
1725.000000	68.287	-10.2601
1750.000000	68.240	-9.2356
1775.000000	68.228	-8.5109
1800.000000	68.190	-8.0699
1825.000000	68.085	-7.4980
1850.000000	67.950	-6.3137
1875.000000	67.878	-4.5369
1900.000000	67.920	-2.6318
1925.000000	68.052	-1.0056
1950.000000	68.226	0.1591
1975.000000	68.400	0.8677
2000.000000	68.545	1.2660
2030.000000	68.678	1.6321
2060.000000	68.802	2.0336
2090.000000	68.923	2.2278
2120.000000	68.983	2.2651
2140.000000	68.988	2.4707
2180.000000	69.012	3.4531
2200.000000	69.044	4.0450
2240.000000	69.133	5.3784
2270.000000	69.245	6.5366
2300.000000	69.398	7.5548
2330.000000	69.546	8.3479
2360.000000	69.677	9.1865
2400.000000	69.878	10.5049
2430.000000	70.057	11.5388
2470.000000	70.341	12.9400
2500.000000	70.586	13.9028
2540.000000	70.938	15.1200
2580.000000	71.350	16.3826
2620.000000	71.855	17.4939
2650.000000	72.295	18.0851
2690.000000	72.955	18.3361
2720.000000	73.483	17.9249
2760.000000	74.164	16.3165
2800.000000	74.736	13.5830
2850.000000	75.257	9.3607
2900.000000	75.603	4.9104
2950.000000	75.798	0.5424
3000.000000	75.887	-3.3835
3040.000000	75.924	-6.2980
3070.000000	75.928	-8.4399
3110.000000	75.891	-11.2339
3150.000000	75.792	-13.8716
3200.000000	75.583	-16.5889
3250.000000	75.345	-18.3782
3300.000000	75.169	-19.5007
3350.000000	75.076	-20.5277
3400.000000	75.026	-21.7355
3450.000000	74.984	-23.1484
3500.000000	74.933	-24.6810
3550.000000	74.874	-26.3306
3600.000000	74.796	-28.1816
3650.000000	74.672	-30.2130
3700.000000	74.483	-32.2687
3750.000000	74.227	-34.1844
3820.000000	73.754	-36.3650
3870.000000	73.341	-37.3202
3950.000000	72.596	-37.3113
4000.000000	72.132	-36.0674
4060.000000	71.696	-33.3256
4120.000000	71.528	-29.8802
4180.000000	71.663	-26.8861
4250.000000	72.021	-25.3051
4310.000000	72.285	-25.6721
4370.000000	72.423	-26.9458
4440.000000	72.409	-28.7915
4500.000000	72.253	-30.1293
4550.000000	72.042	-30.7559
4620.000000	71.688	-30.5920
4680.000000	71.406	-29.4574
4750.000000	71.204	-27.2361
4820.000000	71.215	-24.6013
4870.000000	71.364	-22.8463
4940.000000	71.739	-21.1180
5000.000000	72.144	-20.7592
5080.000000	72.643	-22.2241
5150.000000	72.924	-24.9849
5220.000000	73.013	-28.4025
5300.000000	72.894	-32.1993
5380.000000	72.605	-35.2054
5450.000000	72.287	-37.0520
5520.000000	71.957	-38.3348
5600.000000	71.590	-39.3665
5700.000000	71.161	-40.2506
5800.000000	70.783	-41.0737
5900.000000	70.420	-42.4473
6000.000000	69.941	-44.3606
6080.000000	69.396	-45.5509
6150.000000	68.802	-45.7007
6220.000000	68.145	-44.6867
6300.000000	67.414	-42.1263
6400.000000	66.697	-37.5944
6500.000000	66.287	-32.9723
6600.000000	66.082	-29.2917
6700.000000	65.889	-26.4578
6800.000000	65.611	-23.4860
6900.000000	65.316	-19.4551
7000.000000	65.190	-14.1955
7100.000000	65.411	-8.5172
7200.000000	65.966	-3.8683
7300.000000	66.648	-1.2524
7400.000000	67.252	-0.7311
7500.000000	67.656	-1.5787
7620.000000	67.888	-2.8054
7750.000000	68.048	-3.2085
7880.000000	68.333	-3.0165
8000.000000	68.773	-3.2269
8120.000000	69.325	-4.5989
8250.000000	69.957	-7.8127
8380.000000	70.545	-13.1848
8500.000000	70.972	-20.4385
8620.000000	71.192	-30.0912
8750.000000	71.101	-43.0876
8850.000000	70.743	-54.5443
9000.000000	69.682	-73.2516
9120.000000	68.381	-88.9545
9250.000000	66.579	-106.7493
9380.000000	64.471	-125.9329
9500.000000	62.396	-145.0889
9620.000000	60.462	-165.0908
9750.000000	59.026	173.7852
9880.000000	58.669	155.1470
10000.000000	59.133	141.3608
10150.000000	60.243	129.3395
10300.000000	61.668	122.3894
10440.000000	63.211	118.6289
10600.000000	65.096	114.9282
10750.000000	66.788	109.9341
10900.000000	68.197	102.1836
11060.000000	69.202	90.9526
11200.000000	69.579	79.9604
11380.000000	69.398	67.1741
11500.000000	68.953	60.9526
11720.000000	67.911	55.7289
11800.000000	67.622	55.5101
12060.000000	67.627	56.5222
12200.000000	68.125	55.5183
12410.000000	68.942	49.9679
12500.000000	69.215	46.3020
12650.000000	69.525	39.0470
12800.000000	69.649	30.7756
13150.000000	68.977	10.4460
13200.000000	68.754	7.9722
13400.000000	67.662	0.3811
13600.000000	66.602	-4.4606
13800.000000	65.885	-9.5906
14000.000000	65.366	-17.1366
14300.000000	64.401	-32.8810
14500.000000	63.550	-46.7065
14750.000000	62.103	-70.3303
15000.000000	59.991	-107.2140
15250.000000	57.318	-175.5156
15500.000000	54.343	70.9557
15750.000000	51.626	-52.2363
16000.000000	50.586	-137.4977
16250.000000	51.429	174.6375
16500.000000	53.133	146.0979
16750.000000	54.716	121.5847
17000.000000	55.456	94.5625
17250.000000	55.247	67.3326
17500.000000	54.392	42.4442
17750.000000	53.102	20.1682
18000.000000	51.393	1.6472
18250.000000	49.423	-11.9496
18500.000000	47.753	-21.5291
18750.000000	47.267	-29.3247
19000.000000	48.234	-39.4036
19250.000000	49.705	-57.2335
19500.000000	50.912	-82.1477
19750.000000	51.766	-106.4917
