* Measurement data measured by REW V5.31.1
* Source: Frequency response averaged data
* Format: Averaged data produced from the rms magnitudes of R ETA Mini C (Carlos), R ETA Mini C (Carlos), R ETA Mini C (Carlos)
* Dated: Jun 30, 2024 12:02:45 PM
* REW Settings:
*  C-weighting compensation: Off
*  Target level: 75.0 dB
* Note: Averaged data produced from the rms magnitudes of R ETA Mini C (Carlos), R ETA Mini C (Carlos), R ETA Mini C (Carlos)
* Measurement: RMS Average R
* Smoothing: 1/12 octave
* Frequency Step: 1/48 octave
* Start Frequency: 20.000 Hz
*
* Freq(Hz)	SPL(dB)
20.000000	82.294
20.299999	82.428
20.600000	82.554
20.900000	82.674
21.200001	82.790
21.400000	82.866
21.799999	83.018
22.000000	83.093
22.400000	83.235
22.700001	83.331
23.000000	83.418
23.299999	83.496
23.600000	83.569
24.000000	83.670
24.299999	83.753
24.700001	83.882
25.000000	83.990
25.400000	84.147
25.799999	84.302
26.200001	84.440
26.500000	84.523
26.900000	84.603
27.200001	84.646
27.600000	84.696
28.000000	84.758
28.500000	84.874
29.000000	85.023
29.500000	85.172
30.000000	85.299
30.400000	85.386
30.700001	85.448
31.100000	85.528
31.500000	85.605
32.000000	85.688
32.500000	85.754
33.000000	85.804
33.500000	85.847
34.000000	85.885
34.500000	85.912
35.000000	85.929
35.500000	85.937
36.000000	85.944
36.500000	85.950
37.000000	85.952
37.500000	85.946
38.200001	85.916
38.700001	85.879
39.500000	85.819
40.000000	85.797
40.599998	85.793
41.200001	85.802
41.799999	85.811
42.500000	85.819
43.099998	85.822
43.700001	85.817
44.400002	85.799
45.000000	85.776
45.500000	85.754
46.200001	85.723
46.799999	85.696
47.500000	85.666
48.200001	85.646
48.700001	85.643
49.400002	85.661
50.000000	85.693
50.799999	85.748
51.500000	85.804
52.200001	85.867
53.000000	85.934
53.799999	85.987
54.500000	86.031
55.200001	86.085
56.000000	86.163
57.000000	86.275
58.000000	86.397
59.000000	86.520
60.000000	86.635
60.799999	86.716
61.500000	86.779
62.200001	86.836
63.000000	86.895
64.000000	86.964
65.000000	87.029
66.000000	87.091
67.000000	87.148
68.000000	87.200
69.000000	87.247
70.000000	87.295
71.000000	87.342
72.000000	87.384
73.000000	87.420
74.000000	87.445
75.000000	87.458
76.199997	87.456
77.500000	87.436
78.800003	87.410
80.000000	87.392
81.199997	87.388
82.500000	87.407
83.800003	87.444
85.000000	87.485
86.199997	87.531
87.500000	87.583
88.500000	87.624
90.000000	87.683
91.199997	87.728
92.500000	87.773
93.800003	87.813
95.000000	87.845
96.199997	87.873
97.500000	87.896
98.800003	87.914
100.000000	87.926
101.500000	87.938
103.000000	87.947
104.400002	87.952
106.000000	87.956
107.500000	87.960
109.000000	87.962
110.599998	87.964
112.000000	87.969
113.800003	87.986
115.000000	88.007
117.199997	88.065
118.000000	88.089
120.599998	88.171
122.000000	88.212
124.099998	88.266
125.000000	88.285
126.500000	88.314
128.000000	88.339
131.500000	88.385
132.000000	88.391
134.000000	88.419
136.000000	88.451
138.000000	88.487
140.000000	88.528
143.000000	88.598
145.000000	88.643
147.500000	88.688
150.000000	88.709
152.500000	88.703
155.000000	88.672
157.500000	88.625
160.000000	88.572
162.500000	88.516
165.000000	88.457
167.500000	88.396
170.000000	88.339
172.500000	88.292
175.000000	88.260
177.500000	88.243
180.000000	88.237
182.500000	88.236
185.000000	88.236
187.500000	88.236
190.000000	88.232
192.500000	88.225
195.000000	88.214
197.500000	88.198
200.000000	88.177
203.000000	88.152
206.000000	88.128
209.000000	88.105
212.000000	88.079
214.000000	88.064
218.000000	88.041
220.000000	88.034
224.000000	88.031
227.000000	88.040
230.000000	88.054
233.000000	88.066
236.000000	88.070
240.000000	88.064
243.000000	88.051
247.000000	88.024
250.000000	88.006
254.000000	87.992
258.000000	87.995
262.000000	88.009
265.000000	88.014
269.000000	88.004
272.000000	87.986
276.000000	87.958
280.000000	87.932
285.000000	87.906
290.000000	87.881
295.000000	87.852
300.000000	87.820
304.000000	87.790
307.000000	87.763
311.000000	87.724
315.000000	87.683
320.000000	87.631
325.000000	87.582
330.000000	87.533
335.000000	87.480
340.000000	87.422
345.000000	87.360
350.000000	87.299
355.000000	87.240
360.000000	87.184
365.000000	87.123
370.000000	87.059
375.000000	86.997
382.000000	86.916
387.000000	86.857
395.000000	86.759
400.000000	86.693
406.000000	86.617
412.000000	86.542
418.000000	86.458
425.000000	86.366
431.000000	86.301
437.000000	86.229
444.000000	86.127
450.000000	86.029
455.000000	85.944
462.000000	85.824
468.000000	85.722
475.000000	85.609
482.000000	85.498
487.000000	85.418
494.000000	85.305
500.000000	85.205
508.000000	85.072
515.000000	84.952
522.000000	84.831
530.000000	84.694
538.000000	84.560
545.000000	84.445
552.000000	84.333
560.000000	84.200
570.000000	84.027
580.000000	83.859
590.000000	83.722
600.000000	83.608
608.000000	83.520
615.000000	83.448
622.000000	83.381
630.000000	83.308
640.000000	83.229
650.000000	83.173
660.000000	83.129
670.000000	83.090
680.000000	83.058
690.000000	83.039
700.000000	83.037
710.000000	83.050
720.000000	83.074
730.000000	83.106
740.000000	83.148
750.000000	83.200
762.000000	83.275
775.000000	83.371
788.000000	83.483
800.000000	83.598
812.000000	83.719
825.000000	83.857
838.000000	84.004
850.000000	84.148
862.000000	84.299
875.000000	84.469
885.000000	84.601
900.000000	84.801
912.000000	84.963
925.000000	85.141
938.000000	85.319
950.000000	85.484
962.000000	85.648
975.000000	85.822
988.000000	85.993
1000.000000	86.150
1015.000000	86.344
1030.000000	86.533
1044.000000	86.706
1060.000000	86.897
1075.000000	87.071
1090.000000	87.236
1106.000000	87.403
1120.000000	87.541
1138.000000	87.709
1150.000000	87.815
1172.000000	87.995
1180.000000	88.055
1206.000000	88.232
1220.000000	88.314
1241.000000	88.419
1250.000000	88.457
1265.000000	88.510
1280.000000	88.559
1315.000000	88.685
1320.000000	88.702
1340.000000	88.760
1360.000000	88.801
1380.000000	88.830
1400.000000	88.850
1430.000000	88.869
1450.000000	88.875
1475.000000	88.874
1500.000000	88.862
1525.000000	88.838
1550.000000	88.803
1575.000000	88.755
1600.000000	88.692
1625.000000	88.610
1650.000000	88.506
1675.000000	88.378
1700.000000	88.234
1725.000000	88.103
1750.000000	88.041
1775.000000	88.095
1800.000000	88.227
1825.000000	88.321
1850.000000	88.295
1875.000000	88.150
1900.000000	87.925
1925.000000	87.657
1950.000000	87.372
1975.000000	87.082
2000.000000	86.798
2030.000000	86.481
2060.000000	86.205
2090.000000	85.985
2120.000000	85.831
2140.000000	85.766
2180.000000	85.718
2200.000000	85.726
2240.000000	85.785
2270.000000	85.847
2300.000000	85.914
2330.000000	85.988
2360.000000	86.080
2400.000000	86.265
2430.000000	86.473
2470.000000	86.850
2500.000000	87.189
2540.000000	87.674
2580.000000	88.156
2620.000000	88.609
2650.000000	88.924
2690.000000	89.309
2720.000000	89.574
2760.000000	89.899
2800.000000	90.197
2850.000000	90.536
2900.000000	90.847
2950.000000	91.135
3000.000000	91.397
3040.000000	91.589
3070.000000	91.722
3110.000000	91.890
3150.000000	92.051
3200.000000	92.248
3250.000000	92.441
3300.000000	92.629
3350.000000	92.805
3400.000000	92.956
3450.000000	93.071
3500.000000	93.143
3550.000000	93.172
3600.000000	93.166
3650.000000	93.134
3700.000000	93.085
3750.000000	93.022
3820.000000	92.898
3870.000000	92.774
3950.000000	92.507
4000.000000	92.301
4060.000000	92.026
4120.000000	91.728
4180.000000	91.419
4250.000000	91.057
4310.000000	90.757
4370.000000	90.482
4440.000000	90.206
4500.000000	90.006
4550.000000	89.865
4620.000000	89.711
4680.000000	89.626
4750.000000	89.585
4820.000000	89.611
4870.000000	89.672
4940.000000	89.813
5000.000000	89.985
5080.000000	90.275
5150.000000	90.571
5220.000000	90.885
5300.000000	91.232
5380.000000	91.519
5450.000000	91.682
5520.000000	91.735
5600.000000	91.641
5700.000000	91.295
5800.000000	90.725
5900.000000	89.979
6000.000000	89.110
6080.000000	88.366
6150.000000	87.704
6220.000000	87.050
6300.000000	86.328
6400.000000	85.460
6500.000000	84.608
6600.000000	83.728
6700.000000	82.773
6800.000000	81.708
6900.000000	80.520
7000.000000	79.219
7100.000000	77.867
7200.000000	76.613
7300.000000	75.651
7400.000000	75.063
7500.000000	74.746
7620.000000	74.533
7750.000000	74.486
7880.000000	74.947
8000.000000	76.095
8120.000000	77.776
8250.000000	79.746
8380.000000	81.534
8500.000000	82.891
8620.000000	83.927
8750.000000	84.701
8850.000000	85.077
9000.000000	85.332
9120.000000	85.277
9250.000000	84.951
9380.000000	84.370
9500.000000	83.658
9620.000000	82.827
9750.000000	81.835
9880.000000	80.802
10000.000000	79.933
10150.000000	79.368
10300.000000	79.971
10440.000000	81.531
10600.000000	83.605
10750.000000	85.124
10900.000000	85.933
11060.000000	86.041
11200.000000	85.717
11380.000000	85.095
11500.000000	84.627
11720.000000	83.435
11800.000000	82.830
12060.000000	80.700
12200.000000	80.470
12410.000000	82.245
12500.000000	83.322
12650.000000	84.974
12800.000000	86.240
13150.000000	87.535
13200.000000	87.546
13400.000000	87.221
13600.000000	86.355
13800.000000	85.009
14000.000000	83.268
14300.000000	80.495
14500.000000	79.272
14750.000000	78.973
15000.000000	79.502
15250.000000	80.186
15500.000000	80.708
15750.000000	81.104
16000.000000	81.627
16250.000000	82.429
16500.000000	83.543
16750.000000	84.746
17000.000000	85.645
17250.000000	85.961
17500.000000	85.594
17750.000000	84.578
18000.000000	83.043
18250.000000	81.226
18500.000000	79.623
18750.000000	78.974
19000.000000	79.296
19250.000000	79.768
19500.000000	79.899
19750.000000	79.712
