* Measurement data measured by REW V5.31.1
* Source: Frequency response averaged data
* Format: Averaged data produced from the rms magnitudes of R ETA Gen G (Carlos), R ETA Gen G (Carlos), R ETA Gen G (Carlos)
* Dated: Jun 30, 2024 12:01:24 PM
* REW Settings:
*  C-weighting compensation: Off
*  Target level: 75.0 dB
* Note: Averaged data produced from the rms magnitudes of R ETA Gen G (Carlos), R ETA Gen G (Carlos), R ETA Gen G (Carlos)
* Measurement: RMS Average R
* Smoothing: 1/12 octave
* Frequency Step: 1/48 octave
* Start Frequency: 20.000 Hz
*
* Freq(Hz)	SPL(dB)
20.000000	72.237
20.299999	72.427
20.600000	72.621
20.900000	72.821
21.200001	73.020
21.400000	73.150
21.799999	73.399
22.000000	73.516
22.400000	73.740
22.700001	73.905
23.000000	74.071
23.299999	74.237
23.600000	74.398
24.000000	74.596
24.299999	74.724
24.700001	74.866
25.000000	74.959
25.400000	75.082
25.799999	75.218
26.200001	75.373
26.500000	75.496
26.900000	75.654
27.200001	75.760
27.600000	75.878
28.000000	75.974
28.500000	76.081
29.000000	76.198
29.500000	76.340
30.000000	76.505
30.400000	76.648
30.700001	76.758
31.100000	76.904
31.500000	77.045
32.000000	77.211
32.500000	77.367
33.000000	77.515
33.500000	77.656
34.000000	77.788
34.500000	77.909
35.000000	78.018
35.500000	78.118
36.000000	78.216
36.500000	78.314
37.000000	78.415
37.500000	78.515
38.200001	78.649
38.700001	78.736
39.500000	78.867
40.000000	78.948
40.599998	79.047
41.200001	79.145
41.799999	79.236
42.500000	79.332
43.099998	79.404
43.700001	79.468
44.400002	79.536
45.000000	79.590
45.500000	79.634
46.200001	79.695
46.799999	79.748
47.500000	79.811
48.200001	79.875
48.700001	79.921
49.400002	79.984
50.000000	80.039
50.799999	80.113
51.500000	80.174
52.200001	80.225
53.000000	80.264
53.799999	80.289
54.500000	80.305
55.200001	80.320
56.000000	80.337
57.000000	80.360
58.000000	80.381
59.000000	80.399
60.000000	80.419
60.799999	80.437
61.500000	80.453
62.200001	80.469
63.000000	80.485
64.000000	80.498
65.000000	80.506
66.000000	80.511
67.000000	80.514
68.000000	80.515
69.000000	80.515
70.000000	80.512
71.000000	80.505
72.000000	80.491
73.000000	80.472
74.000000	80.451
75.000000	80.429
76.199997	80.404
77.500000	80.378
78.800003	80.354
80.000000	80.334
81.199997	80.314
82.500000	80.288
83.800003	80.257
85.000000	80.223
86.199997	80.187
87.500000	80.147
88.500000	80.118
90.000000	80.078
91.199997	80.049
92.500000	80.020
93.800003	79.992
95.000000	79.965
96.199997	79.937
97.500000	79.904
98.800003	79.868
100.000000	79.833
101.500000	79.789
103.000000	79.746
104.400002	79.707
106.000000	79.667
107.500000	79.633
109.000000	79.603
110.599998	79.572
112.000000	79.545
113.800003	79.511
115.000000	79.489
117.199997	79.445
118.000000	79.427
120.599998	79.364
122.000000	79.329
124.099998	79.273
125.000000	79.246
126.500000	79.198
128.000000	79.148
131.500000	79.038
132.000000	79.024
134.000000	78.975
136.000000	78.942
138.000000	78.925
140.000000	78.911
143.000000	78.860
145.000000	78.799
147.500000	78.712
150.000000	78.643
152.500000	78.585
155.000000	78.502
157.500000	78.392
160.000000	78.291
162.500000	78.222
165.000000	78.170
167.500000	78.114
170.000000	78.043
172.500000	77.962
175.000000	77.882
177.500000	77.817
180.000000	77.779
182.500000	77.772
185.000000	77.786
187.500000	77.805
190.000000	77.813
192.500000	77.803
195.000000	77.777
197.500000	77.745
200.000000	77.706
203.000000	77.651
206.000000	77.598
209.000000	77.558
212.000000	77.515
214.000000	77.472
218.000000	77.344
220.000000	77.273
224.000000	77.158
227.000000	77.111
230.000000	77.092
233.000000	77.086
236.000000	77.077
240.000000	77.047
243.000000	77.015
247.000000	76.978
250.000000	76.969
254.000000	76.985
258.000000	77.008
262.000000	76.994
265.000000	76.953
269.000000	76.884
272.000000	76.845
276.000000	76.815
280.000000	76.786
285.000000	76.709
290.000000	76.596
295.000000	76.499
300.000000	76.447
304.000000	76.425
307.000000	76.405
311.000000	76.368
315.000000	76.317
320.000000	76.245
325.000000	76.179
330.000000	76.136
335.000000	76.121
340.000000	76.134
345.000000	76.176
350.000000	76.245
355.000000	76.331
360.000000	76.405
365.000000	76.435
370.000000	76.421
375.000000	76.380
382.000000	76.321
387.000000	76.295
395.000000	76.273
400.000000	76.259
406.000000	76.237
412.000000	76.218
418.000000	76.209
425.000000	76.212
431.000000	76.214
437.000000	76.206
444.000000	76.188
450.000000	76.181
455.000000	76.188
462.000000	76.208
468.000000	76.222
475.000000	76.222
482.000000	76.210
487.000000	76.198
494.000000	76.175
500.000000	76.145
508.000000	76.089
515.000000	76.051
522.000000	76.056
530.000000	76.110
538.000000	76.173
545.000000	76.210
552.000000	76.228
560.000000	76.233
570.000000	76.242
580.000000	76.265
590.000000	76.286
600.000000	76.285
608.000000	76.277
615.000000	76.277
622.000000	76.292
630.000000	76.327
640.000000	76.382
650.000000	76.429
660.000000	76.455
670.000000	76.461
680.000000	76.468
690.000000	76.497
700.000000	76.551
710.000000	76.616
720.000000	76.689
730.000000	76.789
740.000000	76.937
750.000000	77.137
762.000000	77.407
775.000000	77.632
788.000000	77.675
800.000000	77.549
812.000000	77.362
825.000000	77.208
838.000000	77.159
850.000000	77.211
862.000000	77.351
875.000000	77.587
885.000000	77.797
900.000000	78.065
912.000000	78.179
925.000000	78.206
938.000000	78.189
950.000000	78.172
962.000000	78.160
975.000000	78.146
988.000000	78.129
1000.000000	78.110
1015.000000	78.078
1030.000000	78.041
1044.000000	78.011
1060.000000	77.996
1075.000000	77.988
1090.000000	77.970
1106.000000	77.932
1120.000000	77.886
1138.000000	77.816
1150.000000	77.768
1172.000000	77.685
1180.000000	77.658
1206.000000	77.577
1220.000000	77.539
1241.000000	77.499
1250.000000	77.491
1265.000000	77.489
1280.000000	77.506
1315.000000	77.605
1320.000000	77.619
1340.000000	77.653
1360.000000	77.631
1380.000000	77.566
1400.000000	77.518
1430.000000	77.588
1450.000000	77.733
1475.000000	77.966
1500.000000	78.214
1525.000000	78.460
1550.000000	78.687
1575.000000	78.887
1600.000000	79.074
1625.000000	79.287
1650.000000	79.562
1675.000000	79.915
1700.000000	80.335
1725.000000	80.799
1750.000000	81.281
1775.000000	81.753
1800.000000	82.194
1825.000000	82.579
1850.000000	82.890
1875.000000	83.118
1900.000000	83.264
1925.000000	83.340
1950.000000	83.365
1975.000000	83.352
2000.000000	83.303
2030.000000	83.183
2060.000000	82.982
2090.000000	82.705
2120.000000	82.390
2140.000000	82.187
2180.000000	81.866
2200.000000	81.761
2240.000000	81.633
2270.000000	81.555
2300.000000	81.443
2330.000000	81.273
2360.000000	81.046
2400.000000	80.696
2430.000000	80.454
2470.000000	80.240
2500.000000	80.199
2540.000000	80.312
2580.000000	80.574
2620.000000	80.931
2650.000000	81.236
2690.000000	81.670
2720.000000	82.005
2760.000000	82.453
2800.000000	82.890
2850.000000	83.406
2900.000000	83.877
2950.000000	84.295
3000.000000	84.660
3040.000000	84.917
3070.000000	85.091
3110.000000	85.298
3150.000000	85.478
3200.000000	85.663
3250.000000	85.802
3300.000000	85.894
3350.000000	85.940
3400.000000	85.943
3450.000000	85.908
3500.000000	85.841
3550.000000	85.748
3600.000000	85.634
3650.000000	85.506
3700.000000	85.371
3750.000000	85.230
3820.000000	85.026
3870.000000	84.874
3950.000000	84.612
4000.000000	84.430
4060.000000	84.183
4120.000000	83.903
4180.000000	83.595
4250.000000	83.211
4310.000000	82.875
4370.000000	82.547
4440.000000	82.186
4500.000000	81.904
4550.000000	81.689
4620.000000	81.422
4680.000000	81.227
4750.000000	81.046
4820.000000	80.917
4870.000000	80.857
4940.000000	80.814
5000.000000	80.812
5080.000000	80.850
5150.000000	80.915
5220.000000	81.000
5300.000000	81.116
5380.000000	81.239
5450.000000	81.342
5520.000000	81.430
5600.000000	81.506
5700.000000	81.557
5800.000000	81.572
5900.000000	81.569
6000.000000	81.574
6080.000000	81.594
6150.000000	81.624
6220.000000	81.662
6300.000000	81.705
6400.000000	81.737
6500.000000	81.727
6600.000000	81.663
6700.000000	81.547
6800.000000	81.394
6900.000000	81.227
7000.000000	81.070
7100.000000	80.936
7200.000000	80.824
7300.000000	80.719
7400.000000	80.602
7500.000000	80.454
7620.000000	80.210
7750.000000	79.829
7880.000000	79.292
8000.000000	78.639
8120.000000	77.842
8250.000000	76.862
8380.000000	75.849
8500.000000	74.975
8620.000000	74.217
8750.000000	73.510
8850.000000	72.994
9000.000000	72.169
9120.000000	71.431
9250.000000	70.563
9380.000000	69.656
9500.000000	68.824
9620.000000	68.049
9750.000000	67.364
9880.000000	66.952
10000.000000	66.885
10150.000000	67.197
10300.000000	67.785
10440.000000	68.378
10600.000000	68.898
10750.000000	69.095
10900.000000	68.951
11060.000000	68.459
11200.000000	67.877
11380.000000	67.302
11500.000000	67.287
11720.000000	68.234
11800.000000	68.789
12060.000000	70.681
12200.000000	71.517
12410.000000	72.392
12500.000000	72.637
12650.000000	72.910
12800.000000	73.052
13150.000000	72.932
13200.000000	72.848
13400.000000	72.294
13600.000000	71.392
13800.000000	70.278
14000.000000	69.318
14300.000000	69.185
14500.000000	69.932
14750.000000	70.950
15000.000000	71.520
15250.000000	71.535
15500.000000	71.142
15750.000000	70.733
16000.000000	71.008
16250.000000	72.353
16500.000000	74.237
16750.000000	75.971
17000.000000	77.225
17250.000000	77.917
17500.000000	78.077
17750.000000	77.793
18000.000000	77.160
18250.000000	76.283
18500.000000	75.301
18750.000000	74.411
19000.000000	73.807
19250.000000	73.548
19500.000000	73.524
19750.000000	73.579
20000.000000	73.621
