* Measurement data measured by REW V5.31.1
* Source: Frequency response averaged data
* Format: Averaged data produced from the rms magnitudes of L ETA Mini C (Carlos), L ETA Mini C (Carlos), L ETA Mini C (Carlos)
* Dated: Jun 30, 2024 12:02:33 PM
* REW Settings:
*  C-weighting compensation: Off
*  Target level: 75.0 dB
* Note: Averaged data produced from the rms magnitudes of L ETA Mini C (Carlos), L ETA Mini C (Carlos), L ETA Mini C (Carlos)
* Measurement: RMS Average L
* Smoothing: 1/12 octave
* Frequency Step: 1/48 octave
* Start Frequency: 20.000 Hz
*
* Freq(Hz)	SPL(dB)
20.000000	82.169
20.299999	82.288
20.600000	82.401
20.900000	82.510
21.200001	82.614
21.400000	82.680
21.799999	82.806
22.000000	82.869
22.400000	83.001
22.700001	83.113
23.000000	83.239
23.299999	83.375
23.600000	83.511
24.000000	83.676
24.299999	83.779
24.700001	83.889
25.000000	83.959
25.400000	84.053
25.799999	84.163
26.200001	84.291
26.500000	84.391
26.900000	84.516
27.200001	84.599
27.600000	84.690
28.000000	84.764
28.500000	84.842
29.000000	84.911
29.500000	84.978
30.000000	85.044
30.400000	85.098
30.700001	85.139
31.100000	85.191
31.500000	85.240
32.000000	85.299
32.500000	85.360
33.000000	85.420
33.500000	85.468
34.000000	85.497
34.500000	85.507
35.000000	85.511
35.500000	85.518
36.000000	85.527
36.500000	85.528
37.000000	85.514
37.500000	85.484
38.200001	85.427
38.700001	85.388
39.500000	85.339
40.000000	85.317
40.599998	85.299
41.200001	85.288
41.799999	85.278
42.500000	85.268
43.099998	85.260
43.700001	85.259
44.400002	85.261
45.000000	85.262
45.500000	85.260
46.200001	85.257
46.799999	85.254
47.500000	85.247
48.200001	85.234
48.700001	85.224
49.400002	85.214
50.000000	85.213
50.799999	85.232
51.500000	85.276
52.200001	85.345
53.000000	85.438
53.799999	85.533
54.500000	85.619
55.200001	85.704
56.000000	85.796
57.000000	85.901
58.000000	85.992
59.000000	86.070
60.000000	86.139
60.799999	86.190
61.500000	86.233
62.200001	86.275
63.000000	86.324
64.000000	86.394
65.000000	86.470
66.000000	86.544
67.000000	86.614
68.000000	86.689
69.000000	86.771
70.000000	86.855
71.000000	86.935
72.000000	87.008
73.000000	87.074
74.000000	87.134
75.000000	87.190
76.199997	87.250
77.500000	87.305
78.800003	87.348
80.000000	87.378
81.199997	87.404
82.500000	87.430
83.800003	87.449
85.000000	87.459
86.199997	87.464
87.500000	87.470
88.500000	87.477
90.000000	87.490
91.199997	87.497
92.500000	87.499
93.800003	87.491
95.000000	87.475
96.199997	87.453
97.500000	87.428
98.800003	87.406
100.000000	87.396
101.500000	87.400
103.000000	87.418
104.400002	87.436
106.000000	87.451
107.500000	87.458
109.000000	87.461
110.599998	87.462
112.000000	87.465
113.800003	87.474
115.000000	87.484
117.199997	87.502
118.000000	87.508
120.599998	87.518
122.000000	87.516
124.099998	87.513
125.000000	87.512
126.500000	87.513
128.000000	87.517
131.500000	87.548
132.000000	87.554
134.000000	87.574
136.000000	87.591
138.000000	87.608
140.000000	87.626
143.000000	87.648
145.000000	87.660
147.500000	87.671
150.000000	87.675
152.500000	87.667
155.000000	87.648
157.500000	87.621
160.000000	87.589
162.500000	87.555
165.000000	87.519
167.500000	87.482
170.000000	87.445
172.500000	87.403
175.000000	87.359
177.500000	87.312
180.000000	87.265
182.500000	87.224
185.000000	87.196
187.500000	87.174
190.000000	87.152
192.500000	87.132
195.000000	87.116
197.500000	87.102
200.000000	87.086
203.000000	87.059
206.000000	87.024
209.000000	86.989
212.000000	86.962
214.000000	86.953
218.000000	86.948
220.000000	86.948
224.000000	86.949
227.000000	86.947
230.000000	86.943
233.000000	86.934
236.000000	86.920
240.000000	86.904
243.000000	86.896
247.000000	86.887
250.000000	86.875
254.000000	86.854
258.000000	86.831
262.000000	86.813
265.000000	86.801
269.000000	86.790
272.000000	86.790
276.000000	86.794
280.000000	86.792
285.000000	86.774
290.000000	86.746
295.000000	86.719
300.000000	86.700
304.000000	86.697
307.000000	86.702
311.000000	86.714
315.000000	86.721
320.000000	86.718
325.000000	86.697
330.000000	86.662
335.000000	86.617
340.000000	86.572
345.000000	86.533
350.000000	86.493
355.000000	86.444
360.000000	86.389
365.000000	86.340
370.000000	86.310
375.000000	86.290
382.000000	86.243
387.000000	86.191
395.000000	86.106
400.000000	86.054
406.000000	85.987
412.000000	85.918
418.000000	85.850
425.000000	85.771
431.000000	85.701
437.000000	85.632
444.000000	85.556
450.000000	85.494
455.000000	85.442
462.000000	85.371
468.000000	85.310
475.000000	85.238
482.000000	85.167
487.000000	85.114
494.000000	85.034
500.000000	84.964
508.000000	84.867
515.000000	84.785
522.000000	84.710
530.000000	84.613
538.000000	84.504
545.000000	84.415
552.000000	84.345
560.000000	84.288
570.000000	84.232
580.000000	84.158
590.000000	84.075
600.000000	84.008
608.000000	83.966
615.000000	83.934
622.000000	83.906
630.000000	83.875
640.000000	83.835
650.000000	83.792
660.000000	83.759
670.000000	83.739
680.000000	83.732
690.000000	83.738
700.000000	83.752
710.000000	83.777
720.000000	83.814
730.000000	83.864
740.000000	83.925
750.000000	83.994
762.000000	84.090
775.000000	84.206
788.000000	84.334
800.000000	84.460
812.000000	84.589
825.000000	84.733
838.000000	84.880
850.000000	85.018
862.000000	85.157
875.000000	85.306
885.000000	85.419
900.000000	85.590
912.000000	85.726
925.000000	85.871
938.000000	86.012
950.000000	86.138
962.000000	86.260
975.000000	86.389
988.000000	86.515
1000.000000	86.630
1015.000000	86.771
1030.000000	86.908
1044.000000	87.032
1060.000000	87.171
1075.000000	87.297
1090.000000	87.419
1106.000000	87.545
1120.000000	87.651
1138.000000	87.781
1150.000000	87.865
1172.000000	88.013
1180.000000	88.064
1206.000000	88.219
1220.000000	88.297
1241.000000	88.407
1250.000000	88.451
1265.000000	88.522
1280.000000	88.588
1315.000000	88.726
1320.000000	88.745
1340.000000	88.814
1360.000000	88.876
1380.000000	88.933
1400.000000	88.984
1430.000000	89.052
1450.000000	89.092
1475.000000	89.136
1500.000000	89.172
1525.000000	89.198
1550.000000	89.210
1575.000000	89.208
1600.000000	89.201
1625.000000	89.194
1650.000000	89.176
1675.000000	89.137
1700.000000	89.074
1725.000000	88.986
1750.000000	88.873
1775.000000	88.733
1800.000000	88.567
1825.000000	88.372
1850.000000	88.145
1875.000000	87.886
1900.000000	87.601
1925.000000	87.312
1950.000000	87.060
1975.000000	86.890
2000.000000	86.811
2030.000000	86.779
2060.000000	86.755
2090.000000	86.757
2120.000000	86.822
2140.000000	86.901
2180.000000	87.108
2200.000000	87.216
2240.000000	87.408
2270.000000	87.523
2300.000000	87.622
2330.000000	87.727
2360.000000	87.858
2400.000000	88.090
2430.000000	88.303
2470.000000	88.622
2500.000000	88.878
2540.000000	89.229
2580.000000	89.580
2620.000000	89.918
2650.000000	90.157
2690.000000	90.451
2720.000000	90.654
2760.000000	90.904
2800.000000	91.136
2850.000000	91.403
2900.000000	91.646
2950.000000	91.871
3000.000000	92.078
3040.000000	92.232
3070.000000	92.341
3110.000000	92.478
3150.000000	92.608
3200.000000	92.762
3250.000000	92.913
3300.000000	93.065
3350.000000	93.221
3400.000000	93.380
3450.000000	93.533
3500.000000	93.673
3550.000000	93.793
3600.000000	93.894
3650.000000	93.974
3700.000000	94.033
3750.000000	94.071
3820.000000	94.082
3870.000000	94.050
3950.000000	93.910
4000.000000	93.763
4060.000000	93.531
4120.000000	93.248
4180.000000	92.927
4250.000000	92.521
4310.000000	92.162
4370.000000	91.807
4440.000000	91.416
4500.000000	91.117
4550.000000	90.898
4620.000000	90.641
4680.000000	90.470
4750.000000	90.331
4820.000000	90.260
4870.000000	90.252
4940.000000	90.302
5000.000000	90.404
5080.000000	90.618
5150.000000	90.871
5220.000000	91.171
5300.000000	91.548
5380.000000	91.931
5450.000000	92.239
5520.000000	92.489
5600.000000	92.663
5700.000000	92.657
5800.000000	92.367
5900.000000	91.799
6000.000000	91.010
6080.000000	90.274
6150.000000	89.596
6220.000000	88.916
6300.000000	88.169
6400.000000	87.315
6500.000000	86.564
6600.000000	85.908
6700.000000	85.321
6800.000000	84.778
6900.000000	84.249
7000.000000	83.707
7100.000000	83.122
7200.000000	82.465
7300.000000	81.708
7400.000000	80.834
7500.000000	79.862
7620.000000	78.662
7750.000000	77.488
7880.000000	76.573
8000.000000	76.109
8120.000000	76.354
8250.000000	77.665
8380.000000	79.650
8500.000000	81.518
8620.000000	83.117
8750.000000	84.408
8850.000000	85.059
9000.000000	85.474
9120.000000	85.356
9250.000000	84.851
9380.000000	84.056
9500.000000	83.159
9620.000000	82.197
9750.000000	81.197
9880.000000	80.413
10000.000000	80.076
10150.000000	80.405
10300.000000	81.557
10440.000000	83.079
10600.000000	84.888
10750.000000	86.316
10900.000000	87.313
11060.000000	87.871
11200.000000	88.006
11380.000000	87.838
11500.000000	87.547
11720.000000	86.585
11800.000000	86.076
12060.000000	83.862
12200.000000	82.462
12410.000000	80.780
12500.000000	80.486
12650.000000	80.681
12800.000000	81.391
13150.000000	82.882
13200.000000	82.977
13400.000000	82.984
13600.000000	82.380
13800.000000	81.226
14000.000000	79.668
14300.000000	77.324
14500.000000	76.813
14750.000000	78.325
15000.000000	80.933
15250.000000	83.169
15500.000000	84.601
15750.000000	85.357
16000.000000	85.871
16250.000000	86.563
16500.000000	87.439
16750.000000	88.212
17000.000000	88.651
17250.000000	88.679
17500.000000	88.298
17750.000000	87.505
18000.000000	86.339
18250.000000	84.953
18500.000000	83.579
18750.000000	82.475
19000.000000	81.882
19250.000000	81.820
19500.000000	81.941
19750.000000	81.910
