* Measurement data measured by REW V5.20.13
* Source: EXCL: Headset (USB-C to 3.5mm Headphone Jack Adapter), MICROPHONE (Master Volume), 0, volume: 0.260
* Format: 256k Log Swept Sine, 1 sweep at -12.0 dBFS with no timing reference
* Dated: Aug 15, 2023 4:29:30 PM
* REW Settings:
*  C-weighting compensation: Off
*  Target level: 75.0 dB
* Note: 
* Measurement: ETA O2
* Smoothing: 1/12 octave
* Frequency Step: 1/48 octave
* Start Frequency: 20.000 Hz
*
* Freq(Hz)	SPL(dB)	Phase(degrees)
20.000000	70.258	161.2591
20.299999	70.495	159.2066
20.600000	70.711	157.1841
20.900000	70.912	155.2678
21.200001	71.112	153.4816
21.400000	71.249	152.3418
21.799999	71.527	150.1255
22.000000	71.666	149.0265
22.400000	71.930	146.8370
22.700001	72.111	145.2501
23.000000	72.279	143.7739
23.299999	72.442	142.4344
23.600000	72.609	141.2054
24.000000	72.840	139.6387
24.299999	73.014	138.4261
24.700001	73.227	136.7078
25.000000	73.364	135.3847
25.400000	73.516	133.6843
25.799999	73.655	132.1241
26.200001	73.803	130.6067
26.500000	73.920	129.3728
26.900000	74.062	127.5040
27.200001	74.141	125.9807
27.600000	74.204	123.9842
28.000000	74.250	122.2647
28.500000	74.366	120.4671
29.000000	74.585	118.3798
29.500000	74.808	115.3785
30.000000	74.885	111.8232
30.400000	74.815	109.4277
30.700001	74.723	108.2942
31.100000	74.647	107.7652
31.500000	74.715	107.9508
32.000000	75.020	108.0895
32.500000	75.423	107.2356
33.000000	75.760	105.4815
33.500000	75.991	103.5197
34.000000	76.160	101.8415
34.500000	76.317	100.4327
35.000000	76.466	99.0980
35.500000	76.592	97.7641
36.000000	76.695	96.4826
36.500000	76.786	95.2686
37.000000	76.873	94.0591
37.500000	76.954	92.7973
38.200001	77.054	90.9411
38.700001	77.117	89.5734
39.500000	77.206	87.3285
40.000000	77.252	85.9256
40.599998	77.301	84.3038
41.200001	77.350	82.7758
41.799999	77.400	81.3307
42.500000	77.458	79.7501
43.099998	77.506	78.5093
43.700001	77.553	77.3808
44.400002	77.612	76.1856
45.000000	77.667	75.2418
45.500000	77.717	74.4911
46.200001	77.796	73.4435
46.799999	77.868	72.4928
47.500000	77.948	71.2838
48.200001	78.013	69.9939
48.700001	78.050	69.0589
49.400002	78.092	67.7714
50.000000	78.123	66.7000
50.799999	78.164	65.3270
51.500000	78.202	64.2030
52.200001	78.253	63.1590
53.000000	78.333	62.0096
53.799999	78.429	60.8349
54.500000	78.514	59.7762
55.200001	78.591	58.7182
56.000000	78.660	57.5758
57.000000	78.719	56.3803
58.000000	78.779	55.4958
59.000000	78.876	54.5873
60.000000	78.966	53.1382
60.799999	78.973	51.6829
61.500000	78.933	50.4673
62.200001	78.879	49.4099
63.000000	78.826	48.3384
64.000000	78.789	47.0890
65.000000	78.783	45.8767
66.000000	78.799	44.6782
67.000000	78.822	43.5146
68.000000	78.845	42.4034
69.000000	78.861	41.3414
70.000000	78.868	40.3087
71.000000	78.867	39.2906
72.000000	78.861	38.2862
73.000000	78.856	37.2977
74.000000	78.855	36.3309
75.000000	78.859	35.3907
76.199997	78.866	34.3075
77.500000	78.869	33.2061
78.800003	78.863	32.1729
80.000000	78.848	31.2558
81.199997	78.828	30.3547
82.500000	78.804	29.3802
83.800003	78.781	28.4059
85.000000	78.760	27.5221
86.199997	78.741	26.6675
87.500000	78.721	25.7791
88.500000	78.704	25.1216
90.000000	78.676	24.1648
91.199997	78.651	23.4149
92.500000	78.622	22.6160
93.800003	78.592	21.8386
95.000000	78.564	21.1539
96.199997	78.539	20.5082
97.500000	78.515	19.8422
98.800003	78.492	19.1992
100.000000	78.469	18.6310
101.500000	78.439	17.9493
103.000000	78.406	17.2729
104.400002	78.374	16.6289
106.000000	78.335	15.8895
107.500000	78.303	15.2247
109.000000	78.278	14.6018
110.599998	78.253	13.9731
112.000000	78.225	13.4412
113.800003	78.178	12.7324
115.000000	78.139	12.1909
117.199997	78.054	11.0160
118.000000	78.020	10.5709
120.599998	77.916	9.4471
122.000000	77.888	9.1002
124.099998	77.872	8.7059
125.000000	77.865	8.5347
126.500000	77.846	8.2183
128.000000	77.816	7.8655
131.500000	77.730	6.9921
132.000000	77.718	6.8725
134.000000	77.670	6.4285
136.000000	77.623	6.0298
138.000000	77.578	5.6437
140.000000	77.535	5.2687
143.000000	77.483	4.7601
145.000000	77.460	4.4297
147.500000	77.429	3.9912
150.000000	77.386	3.5594
152.500000	77.337	3.1519
155.000000	77.290	2.7427
157.500000	77.245	2.3267
160.000000	77.205	1.9127
162.500000	77.170	1.5223
165.000000	77.136	1.1713
167.500000	77.094	0.8207
170.000000	77.041	0.4369
172.500000	76.986	0.0361
175.000000	76.937	-0.3519
177.500000	76.889	-0.7107
180.000000	76.842	-1.0441
182.500000	76.796	-1.3531
185.000000	76.752	-1.6306
187.500000	76.705	-1.8777
190.000000	76.656	-2.1028
192.500000	76.607	-2.3087
195.000000	76.561	-2.5052
197.500000	76.514	-2.7145
200.000000	76.465	-2.9349
203.000000	76.407	-3.1807
206.000000	76.352	-3.3846
209.000000	76.300	-3.5396
212.000000	76.251	-3.6191
214.000000	76.219	-3.6307
218.000000	76.156	-3.6544
220.000000	76.124	-3.7000
224.000000	76.060	-3.8008
227.000000	76.016	-3.8420
230.000000	75.976	-3.8696
233.000000	75.941	-3.8940
236.000000	75.908	-3.9178
240.000000	75.865	-3.9727
243.000000	75.835	-4.0461
247.000000	75.803	-4.1526
250.000000	75.779	-4.2101
254.000000	75.743	-4.2491
258.000000	75.706	-4.2509
262.000000	75.672	-4.2397
265.000000	75.649	-4.2436
269.000000	75.624	-4.2811
272.000000	75.608	-4.3361
276.000000	75.584	-4.4269
280.000000	75.553	-4.4971
285.000000	75.508	-4.5433
290.000000	75.465	-4.5774
295.000000	75.426	-4.5676
300.000000	75.391	-4.5209
304.000000	75.359	-4.5025
307.000000	75.336	-4.5029
311.000000	75.309	-4.5111
315.000000	75.285	-4.5189
320.000000	75.262	-4.5106
325.000000	75.248	-4.4822
330.000000	75.239	-4.4614
335.000000	75.228	-4.4399
340.000000	75.200	-4.3771
345.000000	75.154	-4.2710
350.000000	75.108	-4.1633
355.000000	75.073	-4.0742
360.000000	75.042	-3.9930
365.000000	75.010	-3.9043
370.000000	74.978	-3.8071
375.000000	74.949	-3.7125
382.000000	74.916	-3.5975
387.000000	74.893	-3.5096
395.000000	74.847	-3.3082
400.000000	74.819	-3.1547
406.000000	74.792	-2.9733
412.000000	74.770	-2.8110
418.000000	74.749	-2.6498
425.000000	74.720	-2.4465
431.000000	74.695	-2.2740
437.000000	74.673	-2.0923
444.000000	74.654	-1.8363
450.000000	74.644	-1.5845
455.000000	74.641	-1.3777
462.000000	74.644	-1.1180
468.000000	74.644	-0.9106
475.000000	74.635	-0.6689
482.000000	74.623	-0.4305
487.000000	74.618	-0.2600
494.000000	74.616	-0.0237
500.000000	74.617	0.1647
508.000000	74.618	0.3893
515.000000	74.619	0.5853
522.000000	74.623	0.8049
530.000000	74.630	1.0420
538.000000	74.634	1.2121
545.000000	74.632	1.3347
552.000000	74.626	1.4951
560.000000	74.623	1.7554
570.000000	74.627	2.1171
580.000000	74.633	2.4369
590.000000	74.639	2.7638
600.000000	74.649	3.1012
608.000000	74.657	3.3408
615.000000	74.663	3.5339
622.000000	74.666	3.7297
630.000000	74.672	3.9698
640.000000	74.682	4.3054
650.000000	74.698	4.6766
660.000000	74.717	5.0514
670.000000	74.742	5.4022
680.000000	74.766	5.7289
690.000000	74.782	6.0458
700.000000	74.795	6.3840
710.000000	74.814	6.7556
720.000000	74.842	7.1378
730.000000	74.875	7.4921
740.000000	74.912	7.7927
750.000000	74.953	8.0510
762.000000	75.006	8.3433
775.000000	75.064	8.6332
788.000000	75.116	8.8525
800.000000	75.154	9.0160
812.000000	75.187	9.2051
825.000000	75.226	9.4629
838.000000	75.267	9.7278
850.000000	75.305	9.9336
862.000000	75.340	10.1019
875.000000	75.369	10.2932
885.000000	75.388	10.4822
900.000000	75.418	10.8066
912.000000	75.447	11.0549
925.000000	75.479	11.3197
938.000000	75.513	11.6021
950.000000	75.545	11.8758
962.000000	75.577	12.1382
975.000000	75.610	12.3970
988.000000	75.640	12.6501
1000.000000	75.666	12.8961
1015.000000	75.696	13.2222
1030.000000	75.726	13.5632
1044.000000	75.756	13.8952
1060.000000	75.793	14.3005
1075.000000	75.826	14.6925
1090.000000	75.856	15.0858
1106.000000	75.883	15.5497
1120.000000	75.908	16.0271
1138.000000	75.950	16.7230
1150.000000	75.987	17.1948
1172.000000	76.070	17.9852
1180.000000	76.101	18.2527
1206.000000	76.193	19.1996
1220.000000	76.244	19.8199
1241.000000	76.343	20.7990
1250.000000	76.393	21.1895
1265.000000	76.480	21.7955
1280.000000	76.567	22.3973
1315.000000	76.798	23.9023
1320.000000	76.835	24.1101
1340.000000	76.994	24.8767
1360.000000	77.155	25.5760
1380.000000	77.324	26.2903
1400.000000	77.510	26.9861
1430.000000	77.810	27.7951
1450.000000	78.009	28.2150
1475.000000	78.260	28.7110
1500.000000	78.525	29.1149
1525.000000	78.801	29.3822
1550.000000	79.087	29.5574
1575.000000	79.387	29.6090
1600.000000	79.687	29.4171
1625.000000	79.972	28.9720
1650.000000	80.237	28.3597
1675.000000	80.476	27.6559
1700.000000	80.689	26.9750
1725.000000	80.901	26.3649
1750.000000	81.128	25.6985
1775.000000	81.354	24.8927
1800.000000	81.568	24.0073
1825.000000	81.782	23.1045
1850.000000	82.013	22.0520
1875.000000	82.242	20.6832
1900.000000	82.441	19.0214
1925.000000	82.602	17.1639
1950.000000	82.725	15.1386
1975.000000	82.808	12.9119
2000.000000	82.838	10.4719
2030.000000	82.767	7.3524
2060.000000	82.527	4.5023
2090.000000	82.143	2.6855
2120.000000	81.726	2.0300
2140.000000	81.462	2.0330
2180.000000	80.968	3.0352
2200.000000	80.768	4.0364
2240.000000	80.510	6.4089
2270.000000	80.391	8.3260
2300.000000	80.336	10.5397
2330.000000	80.376	12.8225
2360.000000	80.486	14.9717
2400.000000	80.736	17.7908
2430.000000	81.024	19.7109
2470.000000	81.498	21.5828
2500.000000	81.881	22.3803
2540.000000	82.383	22.7162
2580.000000	82.857	22.4239
2620.000000	83.286	21.6254
2650.000000	83.570	20.8081
2690.000000	83.919	19.5413
2720.000000	84.162	18.3799
2760.000000	84.426	16.5112
2800.000000	84.598	14.5526
2850.000000	84.710	12.4156
2900.000000	84.773	10.8920
2950.000000	84.853	9.8702
3000.000000	84.961	8.9998
3040.000000	85.041	8.3981
3070.000000	85.116	8.0876
3110.000000	85.259	7.6624
3150.000000	85.425	6.9919
3200.000000	85.611	5.8800
3250.000000	85.764	4.7777
3300.000000	85.925	3.8540
3350.000000	86.128	2.9332
3400.000000	86.358	1.7161
3450.000000	86.579	0.1643
3500.000000	86.783	-1.6531
3550.000000	86.956	-3.7159
3600.000000	87.092	-5.9232
3650.000000	87.194	-8.2806
3700.000000	87.239	-10.7904
3750.000000	87.214	-13.1912
3820.000000	87.117	-16.0269
3870.000000	87.047	-17.7117
3950.000000	86.979	-20.2421
4000.000000	86.952	-21.9699
4060.000000	86.900	-24.2744
4120.000000	86.795	-26.7025
4180.000000	86.636	-29.0486
4250.000000	86.399	-31.5392
4310.000000	86.162	-33.4388
4370.000000	85.900	-35.0688
4440.000000	85.586	-36.6247
4500.000000	85.331	-37.7933
4550.000000	85.126	-38.7563
4620.000000	84.821	-40.0916
4680.000000	84.532	-41.0963
4750.000000	84.173	-41.9948
4820.000000	83.809	-42.6302
4870.000000	83.546	-42.9402
4940.000000	83.170	-43.1199
5000.000000	82.849	-43.0093
5080.000000	82.436	-42.4946
5150.000000	82.099	-41.6613
5220.000000	81.813	-40.4609
5300.000000	81.588	-38.8701
5380.000000	81.479	-37.4323
5450.000000	81.458	-36.5331
5520.000000	81.482	-36.0923
5600.000000	81.526	-36.1992
5700.000000	81.555	-37.1832
5800.000000	81.517	-39.0226
5900.000000	81.365	-41.5580
6000.000000	81.065	-44.4652
6080.000000	80.703	-46.8140
6150.000000	80.291	-48.6804
6220.000000	79.797	-50.1862
6300.000000	79.154	-51.3395
6400.000000	78.269	-51.8688
6500.000000	77.328	-51.3972
6600.000000	76.359	-49.9972
6700.000000	75.367	-47.5903
6800.000000	74.382	-44.1096
6900.000000	73.445	-39.7891
7000.000000	72.550	-34.7655
7100.000000	71.663	-28.7579
7200.000000	70.788	-21.1279
7300.000000	70.051	-11.3852
7400.000000	69.705	-0.0049
7500.000000	69.927	11.6689
7620.000000	70.842	24.1460
7750.000000	72.223	34.2371
7880.000000	73.641	40.5604
8000.000000	74.872	43.8920
8120.000000	76.027	45.4559
8250.000000	77.155	45.2247
8380.000000	78.069	43.1180
8500.000000	78.683	40.0427
8620.000000	79.075	36.4682
8750.000000	79.257	32.6660
8850.000000	79.249	30.2327
9000.000000	79.092	27.8887
9120.000000	78.936	27.1144
9250.000000	78.809	27.0560
9380.000000	78.761	27.4308
9500.000000	78.788	27.8430
9620.000000	78.870	28.0981
9750.000000	78.999	28.0556
9880.000000	79.150	27.5698
10000.000000	79.286	26.6451
10150.000000	79.405	24.8102
10300.000000	79.414	22.3407
10440.000000	79.280	19.8166
10600.000000	78.942	17.3834
10750.000000	78.491	16.2272
10900.000000	78.025	16.4611
11060.000000	77.679	17.8561
11200.000000	77.603	19.1504
11380.000000	77.748	19.3579
11500.000000	77.865	18.1236
11720.000000	77.810	13.5911
11800.000000	77.654	11.7164
12060.000000	76.666	7.8168
12200.000000	75.986	7.9623
12410.000000	75.129	10.7367
12500.000000	74.909	12.4260
12650.000000	74.798	15.1541
12800.000000	74.977	17.0068
13150.000000	75.860	14.4060
13200.000000	75.961	13.1305
13400.000000	76.140	6.4003
13600.000000	75.922	-1.3929
13800.000000	75.420	-8.7017
14000.000000	74.846	-15.6759
14300.000000	74.062	-28.5070
14500.000000	73.487	-40.2061
14750.000000	72.565	-59.2761
15000.000000	71.415	-84.2542
15250.000000	70.168	-115.8484
15500.000000	69.066	-152.0587
15750.000000	68.498	172.4532
16000.000000	68.819	142.4779
16250.000000	69.883	118.2950
16500.000000	71.168	97.4911
16750.000000	72.369	78.2295
17000.000000	73.453	59.3435
17250.000000	74.419	39.3656
17500.000000	75.164	16.6359
17750.000000	75.502	-9.7782
18000.000000	75.241	-39.1766
18250.000000	74.268	-69.1482
18500.000000	72.572	-96.6486
18750.000000	70.227	-119.3643
19000.000000	67.372	-136.1499
19250.000000	64.155	-145.3878
19500.000000	60.674	-143.8833
19750.000000	57.093	-132.2537
