* Measurement data measured by REW V5.31.1
* Source: Frequency response averaged data
* Format: Averaged data produced from the rms magnitudes of R L TA O2 (Carlos), R L TA O2 (Carlos), R L TA O2 (Carlos)
* Dated: Jun 30, 2024 12:04:12 PM
* REW Settings:
*  C-weighting compensation: Off
*  Target level: 75.0 dB
* Note: Averaged data produced from the rms magnitudes of R L TA O2 (Carlos), R L TA O2 (Carlos), R L TA O2 (Carlos)
* Measurement: RMS Average L
* Smoothing: 1/12 octave
* Frequency Step: 1/48 octave
* Start Frequency: 20.000 Hz
*
* Freq(Hz)	SPL(dB)
20.000000	83.106
20.299999	83.309
20.600000	83.511
20.900000	83.714
21.200001	83.918
21.400000	84.053
21.799999	84.317
22.000000	84.442
22.400000	84.674
22.700001	84.828
23.000000	84.966
23.299999	85.094
23.600000	85.216
24.000000	85.383
24.299999	85.517
24.700001	85.709
25.000000	85.859
25.400000	86.054
25.799999	86.234
26.200001	86.396
26.500000	86.511
26.900000	86.667
27.200001	86.792
27.600000	86.971
28.000000	87.152
28.500000	87.356
29.000000	87.522
29.500000	87.667
30.000000	87.831
30.400000	87.985
30.700001	88.108
31.100000	88.259
31.500000	88.381
32.000000	88.486
32.500000	88.570
33.000000	88.682
33.500000	88.840
34.000000	89.018
34.500000	89.167
35.000000	89.258
35.500000	89.297
36.000000	89.323
36.500000	89.379
37.000000	89.491
37.500000	89.642
38.200001	89.840
38.700001	89.924
39.500000	89.957
40.000000	89.958
40.599998	89.986
41.200001	90.055
41.799999	90.153
42.500000	90.280
43.099998	90.384
43.700001	90.466
44.400002	90.520
45.000000	90.532
45.500000	90.528
46.200001	90.524
46.799999	90.532
47.500000	90.554
48.200001	90.583
48.700001	90.605
49.400002	90.636
50.000000	90.664
50.799999	90.711
51.500000	90.765
52.200001	90.831
53.000000	90.919
53.799999	91.013
54.500000	91.088
55.200001	91.147
56.000000	91.188
57.000000	91.204
58.000000	91.200
59.000000	91.191
60.000000	91.190
60.799999	91.200
61.500000	91.217
62.200001	91.238
63.000000	91.262
64.000000	91.288
65.000000	91.309
66.000000	91.323
67.000000	91.333
68.000000	91.341
69.000000	91.350
70.000000	91.357
71.000000	91.360
72.000000	91.356
73.000000	91.341
74.000000	91.317
75.000000	91.287
76.199997	91.249
77.500000	91.218
78.800003	91.201
80.000000	91.197
81.199997	91.195
82.500000	91.187
83.800003	91.170
85.000000	91.146
86.199997	91.118
87.500000	91.091
88.500000	91.076
90.000000	91.061
91.199997	91.051
92.500000	91.038
93.800003	91.017
95.000000	90.990
96.199997	90.960
97.500000	90.925
98.800003	90.892
100.000000	90.866
101.500000	90.836
103.000000	90.808
104.400002	90.785
106.000000	90.762
107.500000	90.744
109.000000	90.727
110.599998	90.709
112.000000	90.691
113.800003	90.665
115.000000	90.646
117.199997	90.616
118.000000	90.606
120.599998	90.580
122.000000	90.566
124.099998	90.543
125.000000	90.532
126.500000	90.512
128.000000	90.492
131.500000	90.462
132.000000	90.461
134.000000	90.463
136.000000	90.474
138.000000	90.482
140.000000	90.496
143.000000	90.559
145.000000	90.607
147.500000	90.648
150.000000	90.678
152.500000	90.703
155.000000	90.727
157.500000	90.751
160.000000	90.778
162.500000	90.800
165.000000	90.811
167.500000	90.807
170.000000	90.788
172.500000	90.753
175.000000	90.705
177.500000	90.648
180.000000	90.589
182.500000	90.530
185.000000	90.476
187.500000	90.423
190.000000	90.368
192.500000	90.307
195.000000	90.244
197.500000	90.188
200.000000	90.139
203.000000	90.080
206.000000	90.015
209.000000	89.949
212.000000	89.892
214.000000	89.860
218.000000	89.806
220.000000	89.781
224.000000	89.728
227.000000	89.688
230.000000	89.651
233.000000	89.618
236.000000	89.585
240.000000	89.528
243.000000	89.482
247.000000	89.437
250.000000	89.413
254.000000	89.394
258.000000	89.373
262.000000	89.330
265.000000	89.293
269.000000	89.253
272.000000	89.229
276.000000	89.199
280.000000	89.171
285.000000	89.140
290.000000	89.116
295.000000	89.094
300.000000	89.076
304.000000	89.064
307.000000	89.057
311.000000	89.048
315.000000	89.041
320.000000	89.034
325.000000	89.030
330.000000	89.035
335.000000	89.055
340.000000	89.088
345.000000	89.122
350.000000	89.153
355.000000	89.189
360.000000	89.234
365.000000	89.289
370.000000	89.348
375.000000	89.408
382.000000	89.497
387.000000	89.569
395.000000	89.691
400.000000	89.770
406.000000	89.862
412.000000	89.944
418.000000	90.007
425.000000	90.048
431.000000	90.058
437.000000	90.042
444.000000	89.995
450.000000	89.934
455.000000	89.875
462.000000	89.787
468.000000	89.712
475.000000	89.629
482.000000	89.544
487.000000	89.481
494.000000	89.391
500.000000	89.315
508.000000	89.217
515.000000	89.136
522.000000	89.057
530.000000	88.974
538.000000	88.898
545.000000	88.839
552.000000	88.789
560.000000	88.741
570.000000	88.686
580.000000	88.627
590.000000	88.560
600.000000	88.498
608.000000	88.471
615.000000	88.463
622.000000	88.457
630.000000	88.444
640.000000	88.425
650.000000	88.412
660.000000	88.405
670.000000	88.402
680.000000	88.400
690.000000	88.403
700.000000	88.410
710.000000	88.421
720.000000	88.437
730.000000	88.457
740.000000	88.480
750.000000	88.509
762.000000	88.550
775.000000	88.596
788.000000	88.633
800.000000	88.655
812.000000	88.669
825.000000	88.692
838.000000	88.727
850.000000	88.760
862.000000	88.791
875.000000	88.820
885.000000	88.842
900.000000	88.875
912.000000	88.903
925.000000	88.935
938.000000	88.965
950.000000	88.991
962.000000	89.015
975.000000	89.043
988.000000	89.075
1000.000000	89.106
1015.000000	89.146
1030.000000	89.188
1044.000000	89.229
1060.000000	89.281
1075.000000	89.333
1090.000000	89.385
1106.000000	89.438
1120.000000	89.485
1138.000000	89.548
1150.000000	89.594
1172.000000	89.692
1180.000000	89.732
1206.000000	89.871
1220.000000	89.951
1241.000000	90.075
1250.000000	90.128
1265.000000	90.215
1280.000000	90.305
1315.000000	90.533
1320.000000	90.568
1340.000000	90.715
1360.000000	90.866
1380.000000	91.021
1400.000000	91.182
1430.000000	91.434
1450.000000	91.606
1475.000000	91.828
1500.000000	92.054
1525.000000	92.281
1550.000000	92.511
1575.000000	92.736
1600.000000	92.948
1625.000000	93.145
1650.000000	93.314
1675.000000	93.434
1700.000000	93.481
1725.000000	93.419
1750.000000	93.214
1775.000000	92.836
1800.000000	92.286
1825.000000	91.619
1850.000000	90.954
1875.000000	90.451
1900.000000	90.226
1925.000000	90.284
1950.000000	90.542
1975.000000	90.901
2000.000000	91.287
2030.000000	91.733
2060.000000	92.133
2090.000000	92.476
2120.000000	92.771
2140.000000	92.947
2180.000000	93.257
2200.000000	93.393
2240.000000	93.623
2270.000000	93.759
2300.000000	93.870
2330.000000	93.964
2360.000000	94.047
2400.000000	94.130
2430.000000	94.160
2470.000000	94.167
2500.000000	94.176
2540.000000	94.250
2580.000000	94.424
2620.000000	94.685
2650.000000	94.916
2690.000000	95.245
2720.000000	95.492
2760.000000	95.813
2800.000000	96.126
2850.000000	96.517
2900.000000	96.910
2950.000000	97.291
3000.000000	97.637
3040.000000	97.864
3070.000000	97.995
3110.000000	98.115
3150.000000	98.173
3200.000000	98.178
3250.000000	98.146
3300.000000	98.106
3350.000000	98.066
3400.000000	98.016
3450.000000	97.948
3500.000000	97.862
3550.000000	97.767
3600.000000	97.674
3650.000000	97.583
3700.000000	97.487
3750.000000	97.377
3820.000000	97.188
3870.000000	97.041
3950.000000	96.819
4000.000000	96.694
4060.000000	96.551
4120.000000	96.406
4180.000000	96.245
4250.000000	96.008
4310.000000	95.740
4370.000000	95.408
4440.000000	94.946
4500.000000	94.501
4550.000000	94.105
4620.000000	93.533
4680.000000	93.047
4750.000000	92.517
4820.000000	92.056
4870.000000	91.783
4940.000000	91.484
5000.000000	91.289
5080.000000	91.082
5150.000000	90.942
5220.000000	90.859
5300.000000	90.865
5380.000000	90.998
5450.000000	91.203
5520.000000	91.459
5600.000000	91.773
5700.000000	92.157
5800.000000	92.497
5900.000000	92.767
6000.000000	92.955
6080.000000	93.045
6150.000000	93.083
6220.000000	93.090
6300.000000	93.069
6400.000000	92.998
6500.000000	92.851
6600.000000	92.566
6700.000000	92.083
6800.000000	91.370
6900.000000	90.424
7000.000000	89.251
7100.000000	87.861
7200.000000	86.281
7300.000000	84.594
7400.000000	82.946
7500.000000	81.527
7620.000000	80.378
7750.000000	79.968
7880.000000	80.295
8000.000000	80.988
8120.000000	81.853
8250.000000	82.832
8380.000000	83.728
8500.000000	84.413
8620.000000	84.939
8750.000000	85.334
8850.000000	85.524
9000.000000	85.629
9120.000000	85.536
9250.000000	85.242
9380.000000	84.771
9500.000000	84.235
9620.000000	83.675
9750.000000	83.124
9880.000000	82.687
10000.000000	82.390
10150.000000	82.133
10300.000000	81.983
10440.000000	81.945
10600.000000	82.035
10750.000000	82.264
10900.000000	82.619
11060.000000	83.027
11200.000000	83.269
11380.000000	83.260
11500.000000	83.062
11720.000000	82.683
11800.000000	82.700
12060.000000	83.971
12200.000000	85.408
12410.000000	88.032
12500.000000	89.173
12650.000000	90.932
12800.000000	92.387
13150.000000	94.149
13200.000000	94.204
13400.000000	93.988
13600.000000	93.224
13800.000000	92.142
14000.000000	90.911
14300.000000	88.739
14500.000000	86.959
14750.000000	84.958
15000.000000	85.169
15250.000000	87.311
15500.000000	89.325
15750.000000	90.626
16000.000000	91.311
16250.000000	91.556
16500.000000	91.465
16750.000000	91.132
17000.000000	90.678
17250.000000	90.135
17500.000000	89.423
17750.000000	88.625
18000.000000	88.122
18250.000000	88.190
18500.000000	88.611
18750.000000	88.952
19000.000000	88.901
19250.000000	88.289
19500.000000	87.049
19750.000000	85.325
