* Measurement data measured by REW V5.20.13
* Source: EXCL: Headset (USB-C to 3.5mm Headphone Jack Adapter), MICROPHONE (Master Volume), 0, volume: 0.260
* Format: 256k Log Swept Sine, 1 sweep at -12.0 dBFS with no timing reference
* Dated: Jan 12, 2024 4:13:53 PM
* REW Settings:
*  C-weighting compensation: Off
*  Target level: 75.0 dB
* Note: 
* Measurement: Faunus VM 4h L
* Smoothing: 1/12 octave
* Frequency Step: 1/48 octave
* Start Frequency: 20.000 Hz
*
* Freq(Hz)	SPL(dB)	Phase(degrees)
20.000000	58.789	-139.6328
20.299999	59.050	-141.1351
20.600000	59.322	-142.4662
20.900000	59.613	-143.6865
21.200001	59.926	-144.8821
21.400000	60.142	-145.7100
21.799999	60.583	-147.4836
22.000000	60.802	-148.4409
22.400000	61.225	-150.4837
22.700001	61.524	-152.0935
23.000000	61.806	-153.7330
23.299999	62.068	-155.3698
23.600000	62.311	-156.9700
24.000000	62.609	-158.9858
24.299999	62.819	-160.3630
24.700001	63.096	-161.9899
25.000000	63.312	-163.0732
25.400000	63.620	-164.4183
25.799999	63.947	-165.7822
26.200001	64.277	-167.2628
26.500000	64.514	-168.4523
26.900000	64.810	-170.0883
27.200001	65.016	-171.2995
27.600000	65.278	-172.8474
28.000000	65.533	-174.3245
28.500000	65.844	-176.1437
29.000000	66.136	-177.9829
29.500000	66.401	-179.7900
30.000000	66.649	178.5279
30.400000	66.847	177.2841
30.700001	67.000	176.3878
31.100000	67.211	175.1989
31.500000	67.428	173.9861
32.000000	67.701	172.4224
32.500000	67.974	170.8162
33.000000	68.243	169.1805
33.500000	68.506	167.5363
34.000000	68.760	165.9353
34.500000	69.012	164.4322
35.000000	69.270	163.0211
35.500000	69.536	161.6163
36.000000	69.798	160.1251
36.500000	70.036	158.5410
37.000000	70.238	156.9655
37.500000	70.413	155.5163
38.200001	70.649	153.7357
38.700001	70.829	152.5082
39.500000	71.119	150.3127
40.000000	71.281	148.7954
40.599998	71.454	146.9608
41.200001	71.623	145.2142
41.799999	71.807	143.5374
42.500000	72.042	141.5822
43.099998	72.251	139.8965
43.700001	72.460	138.2371
44.400002	72.696	136.3498
45.000000	72.878	134.8010
45.500000	73.014	133.6198
46.200001	73.192	132.1670
46.799999	73.344	130.9795
47.500000	73.498	129.4355
48.200001	73.584	127.7955
48.700001	73.606	126.7494
49.400002	73.621	125.6068
50.000000	73.656	124.8373
50.799999	73.752	123.8639
51.500000	73.875	122.9381
52.200001	74.021	121.9194
53.000000	74.195	120.7184
53.799999	74.373	119.6293
54.500000	74.537	118.7765
55.200001	74.700	117.9199
56.000000	74.866	116.8948
57.000000	75.031	115.5595
58.000000	75.139	114.1533
59.000000	75.225	113.0814
60.000000	75.444	112.2201
60.799999	75.718	110.8513
61.500000	75.943	109.0028
62.200001	76.118	106.9159
63.000000	76.279	104.6607
64.000000	76.457	102.2291
65.000000	76.619	100.2094
66.000000	76.766	98.5305
67.000000	76.899	97.0463
68.000000	77.017	95.5945
69.000000	77.116	94.0863
70.000000	77.201	92.5364
71.000000	77.281	90.9864
72.000000	77.364	89.4771
73.000000	77.451	88.0450
74.000000	77.541	86.7057
75.000000	77.630	85.4584
76.199997	77.732	84.0497
77.500000	77.838	82.5442
78.800003	77.937	80.9836
80.000000	78.023	79.4760
81.199997	78.103	77.9411
82.500000	78.184	76.3262
83.800003	78.265	74.7874
85.000000	78.337	73.4133
86.199997	78.404	72.0708
87.500000	78.469	70.6379
88.500000	78.515	69.5529
90.000000	78.587	67.9443
91.199997	78.649	66.6149
92.500000	78.709	65.1235
93.800003	78.755	63.6636
95.000000	78.789	62.4026
96.199997	78.815	61.2158
97.500000	78.833	59.9818
98.800003	78.839	58.7745
100.000000	78.838	57.6716
101.500000	78.837	56.3177
103.000000	78.848	55.0258
104.400002	78.871	53.9047
106.000000	78.899	52.7223
107.500000	78.915	51.6505
109.000000	78.918	50.5122
110.599998	78.917	49.1904
112.000000	78.927	48.0111
113.800003	78.958	46.7004
115.000000	78.980	46.1188
117.199997	79.009	45.7514
118.000000	79.018	45.7265
120.599998	79.053	44.8038
122.000000	79.035	43.4641
124.099998	78.967	41.1080
125.000000	78.943	40.1968
126.500000	78.924	38.9301
128.000000	78.922	37.9404
131.500000	78.899	36.1108
132.000000	78.893	35.8649
134.000000	78.870	34.8973
136.000000	78.856	33.9801
138.000000	78.846	33.1143
140.000000	78.834	32.2521
143.000000	78.818	30.9053
145.000000	78.808	30.0109
147.500000	78.789	28.9401
150.000000	78.758	27.9156
152.500000	78.722	26.9476
155.000000	78.690	25.9689
157.500000	78.649	24.9022
160.000000	78.595	23.8172
162.500000	78.543	22.8478
165.000000	78.504	22.0358
167.500000	78.472	21.3555
170.000000	78.442	20.7235
172.500000	78.409	20.0553
175.000000	78.374	19.3206
177.500000	78.337	18.5297
180.000000	78.294	17.7542
182.500000	78.244	17.0641
185.000000	78.192	16.4446
187.500000	78.138	15.8528
190.000000	78.085	15.2797
192.500000	78.034	14.7371
195.000000	77.985	14.2302
197.500000	77.938	13.7503
200.000000	77.889	13.2925
203.000000	77.830	12.7847
206.000000	77.771	12.3362
209.000000	77.716	11.9387
212.000000	77.669	11.5649
214.000000	77.639	11.3199
218.000000	77.584	10.8403
220.000000	77.559	10.6066
224.000000	77.513	10.1492
227.000000	77.479	9.8089
230.000000	77.445	9.4637
233.000000	77.412	9.1127
236.000000	77.379	8.7579
240.000000	77.334	8.2771
243.000000	77.298	7.9073
247.000000	77.246	7.4190
250.000000	77.205	7.0731
254.000000	77.147	6.6472
258.000000	77.084	6.2568
262.000000	77.019	5.9052
265.000000	76.972	5.6736
269.000000	76.917	5.4130
272.000000	76.883	5.2477
276.000000	76.843	5.0457
280.000000	76.804	4.8445
285.000000	76.752	4.5848
290.000000	76.694	4.3127
295.000000	76.628	4.0220
300.000000	76.566	3.7374
304.000000	76.528	3.5482
307.000000	76.503	3.4261
311.000000	76.466	3.2747
315.000000	76.426	3.1295
320.000000	76.375	2.9595
325.000000	76.323	2.8004
330.000000	76.272	2.6569
335.000000	76.222	2.5390
340.000000	76.173	2.4456
345.000000	76.124	2.3721
350.000000	76.075	2.3110
355.000000	76.028	2.2521
360.000000	75.983	2.1943
365.000000	75.938	2.1443
370.000000	75.894	2.1064
375.000000	75.850	2.0821
382.000000	75.788	2.0778
387.000000	75.745	2.0987
395.000000	75.680	2.1573
400.000000	75.640	2.2059
406.000000	75.591	2.2797
412.000000	75.543	2.3614
418.000000	75.498	2.4434
425.000000	75.454	2.5602
431.000000	75.421	2.6817
437.000000	75.388	2.8123
444.000000	75.349	2.9717
450.000000	75.316	3.1118
455.000000	75.289	3.2258
462.000000	75.249	3.3806
468.000000	75.214	3.5207
475.000000	75.175	3.6981
482.000000	75.140	3.8807
487.000000	75.117	4.0130
494.000000	75.088	4.2048
500.000000	75.063	4.3771
508.000000	75.032	4.6199
515.000000	75.008	4.8436
522.000000	74.986	5.0762
530.000000	74.962	5.3508
538.000000	74.938	5.6273
545.000000	74.914	5.8661
552.000000	74.888	6.1059
560.000000	74.859	6.3854
570.000000	74.825	6.7538
580.000000	74.796	7.1666
590.000000	74.777	7.6025
600.000000	74.765	8.0222
608.000000	74.755	8.3388
615.000000	74.746	8.6037
622.000000	74.737	8.8618
630.000000	74.726	9.1536
640.000000	74.713	9.5239
650.000000	74.701	9.9133
660.000000	74.691	10.3268
670.000000	74.682	10.7610
680.000000	74.675	11.2060
690.000000	74.672	11.6467
700.000000	74.672	12.0731
710.000000	74.675	12.4766
720.000000	74.677	12.8555
730.000000	74.678	13.2236
740.000000	74.677	13.6004
750.000000	74.676	13.9973
762.000000	74.679	14.4900
775.000000	74.688	15.0137
788.000000	74.698	15.5283
800.000000	74.708	16.0039
812.000000	74.717	16.4833
825.000000	74.724	17.0172
838.000000	74.731	17.5583
850.000000	74.736	18.0511
862.000000	74.740	18.5505
875.000000	74.746	19.1140
885.000000	74.753	19.5616
900.000000	74.767	20.2546
912.000000	74.781	20.8328
925.000000	74.798	21.4813
938.000000	74.821	22.1487
950.000000	74.850	22.7618
962.000000	74.885	23.3455
975.000000	74.925	23.9357
988.000000	74.964	24.4984
1000.000000	75.000	25.0084
1015.000000	75.045	25.6415
1030.000000	75.091	26.2740
1044.000000	75.133	26.8594
1060.000000	75.183	27.5200
1075.000000	75.234	28.1256
1090.000000	75.289	28.6906
1106.000000	75.344	29.2433
1120.000000	75.386	29.7196
1138.000000	75.432	30.3678
1150.000000	75.461	30.8223
1172.000000	75.511	31.6796
1180.000000	75.529	31.9986
1206.000000	75.592	33.0774
1220.000000	75.631	33.6793
1241.000000	75.691	34.5818
1250.000000	75.715	34.9700
1265.000000	75.753	35.6342
1280.000000	75.790	36.3418
1315.000000	75.893	38.1877
1320.000000	75.911	38.4689
1340.000000	75.991	39.6349
1360.000000	76.095	40.8454
1380.000000	76.224	42.0215
1400.000000	76.369	43.0937
1430.000000	76.602	44.4896
1450.000000	76.759	45.2913
1475.000000	76.948	46.1779
1500.000000	77.128	47.0098
1525.000000	77.305	47.8677
1550.000000	77.491	48.7582
1575.000000	77.696	49.6282
1600.000000	77.920	50.3748
1625.000000	78.147	50.9071
1650.000000	78.359	51.2524
1675.000000	78.547	51.5317
1700.000000	78.717	51.8582
1725.000000	78.886	52.2724
1750.000000	79.068	52.7313
1775.000000	79.263	53.1381
1800.000000	79.462	53.4436
1825.000000	79.660	53.6580
1850.000000	79.855	53.7892
1875.000000	80.047	53.8325
1900.000000	80.232	53.7581
1925.000000	80.400	53.5709
1950.000000	80.546	53.3337
1975.000000	80.669	53.1036
2000.000000	80.770	52.9393
2030.000000	80.872	52.9407
2060.000000	80.984	53.2089
2090.000000	81.130	53.6104
2120.000000	81.310	53.9449
2140.000000	81.440	54.0665
2180.000000	81.697	54.0828
2200.000000	81.823	54.0217
2240.000000	82.077	53.7559
2270.000000	82.265	53.3245
2300.000000	82.423	52.6323
2330.000000	82.527	51.7888
2360.000000	82.571	51.0285
2400.000000	82.574	50.4452
2430.000000	82.569	50.3248
2470.000000	82.568	50.4601
2500.000000	82.569	50.7764
2540.000000	82.595	51.6020
2580.000000	82.702	52.6957
2620.000000	82.884	53.5886
2650.000000	83.036	54.0138
2690.000000	83.226	54.3826
2720.000000	83.359	54.6259
2760.000000	83.539	54.9857
2800.000000	83.737	55.3638
2850.000000	84.021	55.7297
2900.000000	84.336	55.7776
2950.000000	84.646	55.3464
3000.000000	84.907	54.5163
3040.000000	85.071	53.6979
3070.000000	85.164	53.0598
3110.000000	85.247	52.3384
3150.000000	85.307	51.9595
3200.000000	85.416	51.9595
3250.000000	85.604	52.0776
3300.000000	85.845	51.8947
3350.000000	86.090	51.3096
3400.000000	86.312	50.5137
3450.000000	86.533	49.6746
3500.000000	86.778	48.6385
3550.000000	87.024	47.1458
3600.000000	87.227	45.1617
3650.000000	87.359	42.8333
3700.000000	87.411	40.3851
3750.000000	87.392	37.9692
3820.000000	87.252	34.7888
3870.000000	87.072	32.8723
3950.000000	86.701	30.8091
4000.000000	86.463	30.1800
4060.000000	86.229	29.9701
4120.000000	86.094	29.9616
4180.000000	86.049	29.6273
4250.000000	86.021	28.4181
4310.000000	85.930	26.8121
4370.000000	85.743	25.0847
4440.000000	85.413	23.3738
4500.000000	85.067	22.3870
4550.000000	84.759	21.9233
4620.000000	84.329	21.6974
4680.000000	83.970	21.7728
4750.000000	83.555	22.0724
4820.000000	83.128	22.6605
4870.000000	82.816	23.3557
4940.000000	82.399	24.7170
5000.000000	82.074	26.1380
5080.000000	81.688	28.2678
5150.000000	81.392	30.3090
5220.000000	81.139	32.5142
5300.000000	80.922	35.1230
5380.000000	80.780	37.5411
5450.000000	80.684	39.3795
5520.000000	80.586	41.0422
5600.000000	80.459	42.9388
5700.000000	80.300	45.5792
5800.000000	80.204	48.6959
5900.000000	80.277	51.9983
6000.000000	80.546	54.5487
6080.000000	80.824	55.4612
6150.000000	81.039	55.3459
6220.000000	81.179	54.5436
6300.000000	81.221	53.1273
6400.000000	81.086	51.2766
6500.000000	80.793	50.0276
6600.000000	80.440	49.5557
6700.000000	80.095	49.5385
6800.000000	79.770	49.6206
6900.000000	79.442	49.6171
7000.000000	79.080	49.5181
7100.000000	78.656	49.5225
7200.000000	78.175	49.8933
7300.000000	77.669	50.7073
7400.000000	77.162	51.8968
7500.000000	76.663	53.4457
7620.000000	76.096	55.7960
7750.000000	75.565	58.7819
7880.000000	75.156	61.9344
8000.000000	74.903	64.7223
8120.000000	74.783	67.0926
8250.000000	74.802	68.7440
8380.000000	74.940	68.8895
8500.000000	75.102	67.1928
8620.000000	75.201	63.4711
8750.000000	75.131	57.1548
8850.000000	74.884	50.9146
9000.000000	74.101	40.3102
9120.000000	73.074	31.9858
9250.000000	71.552	24.6822
9380.000000	69.662	20.4207
9500.000000	67.728	19.3528
9620.000000	65.822	20.0984
9750.000000	64.045	21.4239
9880.000000	62.753	22.0613
10000.000000	62.058	21.4004
10150.000000	61.813	18.2078
10300.000000	62.009	12.1299
10440.000000	62.331	4.6060
10600.000000	62.685	-4.5814
10750.000000	62.960	-12.2487
10900.000000	63.216	-18.0812
11060.000000	63.509	-22.0510
11200.000000	63.811	-23.7075
11380.000000	64.311	-23.6904
11500.000000	64.740	-22.6732
11720.000000	65.725	-19.7185
11800.000000	66.136	-18.4857
12060.000000	67.612	-14.5814
12200.000000	68.468	-12.8041
12410.000000	69.817	-10.8292
12500.000000	70.405	-10.3907
12650.000000	71.354	-10.4768
12800.000000	72.203	-11.6862
13150.000000	73.600	-17.4067
13200.000000	73.736	-18.3286
13400.000000	74.161	-21.8426
13600.000000	74.450	-24.9463
13800.000000	74.645	-27.6880
14000.000000	74.779	-30.0687
14300.000000	74.981	-33.4276
14500.000000	75.121	-36.3407
14750.000000	75.168	-41.4982
15000.000000	74.860	-47.7974
15250.000000	74.046	-52.8798
15500.000000	72.806	-53.7717
15750.000000	71.604	-49.6227
16000.000000	71.128	-43.3336
16250.000000	71.508	-38.9745
16500.000000	72.296	-38.5789
16750.000000	73.099	-42.4902
17000.000000	73.672	-50.4376
17250.000000	73.846	-61.4146
17500.000000	73.545	-73.6334
17750.000000	72.787	-85.0794
18000.000000	71.696	-94.2332
18250.000000	70.553	-101.0673
18500.000000	69.716	-107.6830
18750.000000	69.262	-116.7556
19000.000000	68.919	-129.1155
19250.000000	68.446	-143.5129
19500.000000	67.841	-157.7993
19750.000000	67.275	-169.7056
