* Measurement data measured by REW V5.20.13
* Source: Frequency Response Averaged data
* Format: Averaged data produced from the rms magnitudes of Faunus 1, Faunus 2, Faunus 3, Faunus 4, Faunus 5, Faunus 6, Faunus 7, Faunus 8, Faunus 9, Faunus 10, Faunus 11, Faunus 12, Faunus 13, Faunus 14, Faunus 15, Faunus 16, Faunus 17, Faunus 18, Faunus 19, Faunus 20, Vector average
* Dated: Feb 11, 2024 3:33:09 PM
* REW Settings:
*  C-weighting compensation: Off
*  Target level: 75.0 dB
* Note: Averaged data produced from the rms magnitudes of Faunus 1, Faunus 2, Faunus 3, Faunus 4, Faunus 5, Faunus 6, Faunus 7, Faunus 8, Faunus 9, Faunus 10, Faunus 11, Faunus 12, Faunus 13, Faunus 14, Faunus 15, Faunus 16, Faunus 17, Faunus 18, Faunus 19, Faunus 20, Vector average
* Measurement: RMS Average 1
* Smoothing: 1/12 octave
* Frequency Step: 1/48 octave
* Start Frequency: 20.000 Hz
*
* Freq(Hz)	SPL(dB)
20.000000	56.845
20.299999	57.146
20.600000	57.467
20.900000	57.802
21.200001	58.138
21.400000	58.352
21.799999	58.745
22.000000	58.922
22.400000	59.240
22.700001	59.464
23.000000	59.692
23.299999	59.936
23.600000	60.201
24.000000	60.578
24.299999	60.865
24.700001	61.235
25.000000	61.493
25.400000	61.810
25.799999	62.110
26.200001	62.406
26.500000	62.630
26.900000	62.928
27.200001	63.147
27.600000	63.424
28.000000	63.682
28.500000	63.983
29.000000	64.270
29.500000	64.554
30.000000	64.843
30.400000	65.083
30.700001	65.268
31.100000	65.517
31.500000	65.761
32.000000	66.046
32.500000	66.298
33.000000	66.527
33.500000	66.752
34.000000	66.987
34.500000	67.230
35.000000	67.473
35.500000	67.707
36.000000	67.935
36.500000	68.165
37.000000	68.399
37.500000	68.630
38.200001	68.928
38.700001	69.120
39.500000	69.408
40.000000	69.585
40.599998	69.793
41.200001	69.995
41.799999	70.193
42.500000	70.424
43.099998	70.622
43.700001	70.820
44.400002	71.055
45.000000	71.262
45.500000	71.434
46.200001	71.666
46.799999	71.852
47.500000	72.049
48.200001	72.216
48.700001	72.310
49.400002	72.418
50.000000	72.503
50.799999	72.634
51.500000	72.779
52.200001	72.951
53.000000	73.152
53.799999	73.321
54.500000	73.445
55.200001	73.568
56.000000	73.721
57.000000	73.924
58.000000	74.131
59.000000	74.327
60.000000	74.500
60.799999	74.630
61.500000	74.742
62.200001	74.853
63.000000	74.977
64.000000	75.127
65.000000	75.273
66.000000	75.415
67.000000	75.552
68.000000	75.689
69.000000	75.828
70.000000	75.968
71.000000	76.107
72.000000	76.241
73.000000	76.370
74.000000	76.494
75.000000	76.613
76.199997	76.747
77.500000	76.884
78.800003	77.013
80.000000	77.125
81.199997	77.230
82.500000	77.336
83.800003	77.436
85.000000	77.525
86.199997	77.611
87.500000	77.700
88.500000	77.765
90.000000	77.853
91.199997	77.917
92.500000	77.982
93.800003	78.042
95.000000	78.095
96.199997	78.145
97.500000	78.195
98.800003	78.241
100.000000	78.280
101.500000	78.325
103.000000	78.365
104.400002	78.397
106.000000	78.430
107.500000	78.458
109.000000	78.483
110.599998	78.505
112.000000	78.522
113.800003	78.542
115.000000	78.555
117.199997	78.569
118.000000	78.572
120.599998	78.579
122.000000	78.585
124.099998	78.592
125.000000	78.595
126.500000	78.598
128.000000	78.599
131.500000	78.592
132.000000	78.590
134.000000	78.583
136.000000	78.574
138.000000	78.564
140.000000	78.553
143.000000	78.536
145.000000	78.523
147.500000	78.503
150.000000	78.480
152.500000	78.454
155.000000	78.427
157.500000	78.400
160.000000	78.371
162.500000	78.341
165.000000	78.309
167.500000	78.273
170.000000	78.235
172.500000	78.196
175.000000	78.157
177.500000	78.119
180.000000	78.080
182.500000	78.040
185.000000	78.001
187.500000	77.962
190.000000	77.924
192.500000	77.886
195.000000	77.847
197.500000	77.808
200.000000	77.769
203.000000	77.722
206.000000	77.675
209.000000	77.627
212.000000	77.580
214.000000	77.549
218.000000	77.488
220.000000	77.460
224.000000	77.404
227.000000	77.365
230.000000	77.327
233.000000	77.290
236.000000	77.255
240.000000	77.209
243.000000	77.173
247.000000	77.123
250.000000	77.086
254.000000	77.037
258.000000	76.990
262.000000	76.944
265.000000	76.909
269.000000	76.863
272.000000	76.829
276.000000	76.784
280.000000	76.740
285.000000	76.685
290.000000	76.629
295.000000	76.572
300.000000	76.517
304.000000	76.476
307.000000	76.446
311.000000	76.406
315.000000	76.366
320.000000	76.314
325.000000	76.263
330.000000	76.213
335.000000	76.166
340.000000	76.119
345.000000	76.073
350.000000	76.027
355.000000	75.981
360.000000	75.935
365.000000	75.890
370.000000	75.847
375.000000	75.805
382.000000	75.749
387.000000	75.709
395.000000	75.645
400.000000	75.606
406.000000	75.562
412.000000	75.518
418.000000	75.477
425.000000	75.432
431.000000	75.396
437.000000	75.361
444.000000	75.320
450.000000	75.285
455.000000	75.257
462.000000	75.221
468.000000	75.191
475.000000	75.157
482.000000	75.126
487.000000	75.105
494.000000	75.075
500.000000	75.051
508.000000	75.021
515.000000	74.995
522.000000	74.972
530.000000	74.947
538.000000	74.924
545.000000	74.905
552.000000	74.888
560.000000	74.869
570.000000	74.848
580.000000	74.830
590.000000	74.814
600.000000	74.800
608.000000	74.791
615.000000	74.785
622.000000	74.779
630.000000	74.773
640.000000	74.766
650.000000	74.762
660.000000	74.760
670.000000	74.759
680.000000	74.759
690.000000	74.762
700.000000	74.766
710.000000	74.771
720.000000	74.776
730.000000	74.781
740.000000	74.786
750.000000	74.792
762.000000	74.799
775.000000	74.808
788.000000	74.817
800.000000	74.826
812.000000	74.837
825.000000	74.850
838.000000	74.864
850.000000	74.878
862.000000	74.894
875.000000	74.913
885.000000	74.929
900.000000	74.954
912.000000	74.975
925.000000	74.998
938.000000	75.024
950.000000	75.053
962.000000	75.085
975.000000	75.122
988.000000	75.162
1000.000000	75.200
1015.000000	75.250
1030.000000	75.304
1044.000000	75.355
1060.000000	75.415
1075.000000	75.470
1090.000000	75.522
1106.000000	75.577
1120.000000	75.626
1138.000000	75.690
1150.000000	75.735
1172.000000	75.820
1180.000000	75.852
1206.000000	75.961
1220.000000	76.024
1241.000000	76.123
1250.000000	76.166
1265.000000	76.238
1280.000000	76.310
1315.000000	76.478
1320.000000	76.501
1340.000000	76.594
1360.000000	76.685
1380.000000	76.779
1400.000000	76.878
1430.000000	77.037
1450.000000	77.150
1475.000000	77.298
1500.000000	77.455
1525.000000	77.625
1550.000000	77.809
1575.000000	78.000
1600.000000	78.195
1625.000000	78.394
1650.000000	78.596
1675.000000	78.797
1700.000000	79.002
1725.000000	79.213
1750.000000	79.427
1775.000000	79.640
1800.000000	79.848
1825.000000	80.050
1850.000000	80.243
1875.000000	80.428
1900.000000	80.609
1925.000000	80.789
1950.000000	80.973
1975.000000	81.159
2000.000000	81.343
2030.000000	81.558
2060.000000	81.765
2090.000000	81.964
2120.000000	82.150
2140.000000	82.263
2180.000000	82.466
2200.000000	82.556
2240.000000	82.716
2270.000000	82.826
2300.000000	82.928
2330.000000	83.022
2360.000000	83.102
2400.000000	83.181
2430.000000	83.221
2470.000000	83.247
2500.000000	83.246
2540.000000	83.229
2580.000000	83.209
2620.000000	83.209
2650.000000	83.230
2690.000000	83.283
2720.000000	83.333
2760.000000	83.403
2800.000000	83.478
2850.000000	83.571
2900.000000	83.658
2950.000000	83.746
3000.000000	83.857
3040.000000	83.974
3070.000000	84.077
3110.000000	84.225
3150.000000	84.379
3200.000000	84.567
3250.000000	84.754
3300.000000	84.945
3350.000000	85.135
3400.000000	85.319
3450.000000	85.505
3500.000000	85.700
3550.000000	85.900
3600.000000	86.098
3650.000000	86.285
3700.000000	86.457
3750.000000	86.616
3820.000000	86.831
3870.000000	86.984
3950.000000	87.214
4000.000000	87.333
4060.000000	87.441
4120.000000	87.499
4180.000000	87.498
4250.000000	87.413
4310.000000	87.265
4370.000000	87.048
4440.000000	86.710
4500.000000	86.358
4550.000000	86.032
4620.000000	85.548
4680.000000	85.126
4750.000000	84.645
4820.000000	84.191
4870.000000	83.890
4940.000000	83.507
5000.000000	83.214
5080.000000	82.864
5150.000000	82.593
5220.000000	82.353
5300.000000	82.113
5380.000000	81.902
5450.000000	81.732
5520.000000	81.568
5600.000000	81.380
5700.000000	81.145
5800.000000	80.908
5900.000000	80.663
6000.000000	80.429
6080.000000	80.266
6150.000000	80.139
6220.000000	80.011
6300.000000	79.837
6400.000000	79.535
6500.000000	79.118
6600.000000	78.599
6700.000000	78.016
6800.000000	77.411
6900.000000	76.824
7000.000000	76.277
7100.000000	75.769
7200.000000	75.291
7300.000000	74.834
7400.000000	74.399
7500.000000	73.993
7620.000000	73.564
7750.000000	73.200
7880.000000	72.976
8000.000000	72.903
8120.000000	72.947
8250.000000	73.090
8380.000000	73.265
8500.000000	73.374
8620.000000	73.346
8750.000000	73.075
8850.000000	72.658
9000.000000	71.681
9120.000000	70.645
9250.000000	69.354
9380.000000	67.981
9500.000000	66.736
9620.000000	65.617
9750.000000	64.677
9880.000000	64.137
10000.000000	64.022
10150.000000	64.296
10300.000000	64.832
10440.000000	65.383
10600.000000	65.918
10750.000000	66.266
10900.000000	66.490
11060.000000	66.689
11200.000000	66.926
11380.000000	67.430
11500.000000	67.912
11720.000000	69.032
11800.000000	69.486
12060.000000	71.000
12200.000000	71.795
12410.000000	72.911
12500.000000	73.351
12650.000000	74.017
12800.000000	74.580
13150.000000	75.404
13200.000000	75.467
13400.000000	75.619
13600.000000	75.673
13800.000000	75.715
14000.000000	75.825
14300.000000	76.176
14500.000000	76.460
14750.000000	76.673
15000.000000	76.520
15250.000000	75.897
15500.000000	74.899
15750.000000	73.805
16000.000000	72.977
16250.000000	72.658
16500.000000	72.795
16750.000000	73.110
17000.000000	73.294
17250.000000	73.149
17500.000000	72.611
17750.000000	71.730
18000.000000	70.680
18250.000000	69.805
18500.000000	69.499
18750.000000	69.764
19000.000000	70.201
19250.000000	70.497
19500.000000	70.581
19750.000000	70.518
20000.000000	70.430
