* Measurement data measured by REW V5.20.13
* Source: Frequency Response Averaged data
* Format: Averaged data produced from the rms magnitudes of Focal Bathys Wired R, Focal Bathys Wired R, Focal Bathys Wired R
* Dated: Apr 4, 2024 8:16:19 PM
* REW Settings:
*  C-weighting compensation: Off
*  Target level: 75.0 dB
* Note: Averaged data produced from the rms magnitudes of Focal Bathys Wired R, Focal Bathys Wired R, Focal Bathys Wired R
* Measurement: Focal Bathys Wired R AVG
* Smoothing: 1/12 octave
* Frequency Step: 1/48 octave
* Start Frequency: 20.000 Hz
*
* Freq(Hz)	SPL(dB)
20.000000	74.785
20.299999	74.935
20.600000	75.081
20.900000	75.223
21.200001	75.361
21.400000	75.451
21.799999	75.624
22.000000	75.707
22.400000	75.868
22.700001	75.984
23.000000	76.097
23.299999	76.206
23.600000	76.313
24.000000	76.451
24.299999	76.552
24.700001	76.682
25.000000	76.778
25.400000	76.903
25.799999	77.026
26.200001	77.148
26.500000	77.238
26.900000	77.356
27.200001	77.443
27.600000	77.556
28.000000	77.665
28.500000	77.796
29.000000	77.921
29.500000	78.041
30.000000	78.155
30.400000	78.242
30.700001	78.303
31.100000	78.380
31.500000	78.453
32.000000	78.540
32.500000	78.621
33.000000	78.699
33.500000	78.774
34.000000	78.846
34.500000	78.916
35.000000	78.984
35.500000	79.050
36.000000	79.112
36.500000	79.171
37.000000	79.227
37.500000	79.280
38.200001	79.348
38.700001	79.392
39.500000	79.457
40.000000	79.495
40.599998	79.538
41.200001	79.579
41.799999	79.618
42.500000	79.660
43.099998	79.695
43.700001	79.727
44.400002	79.762
45.000000	79.789
45.500000	79.810
46.200001	79.836
46.799999	79.855
47.500000	79.875
48.200001	79.890
48.700001	79.900
49.400002	79.911
50.000000	79.919
50.799999	79.927
51.500000	79.932
52.200001	79.935
53.000000	79.936
53.799999	79.933
54.500000	79.928
55.200001	79.922
56.000000	79.912
57.000000	79.895
58.000000	79.872
59.000000	79.843
60.000000	79.808
60.799999	79.776
61.500000	79.746
62.200001	79.714
63.000000	79.676
64.000000	79.626
65.000000	79.575
66.000000	79.522
67.000000	79.466
68.000000	79.408
69.000000	79.346
70.000000	79.282
71.000000	79.214
72.000000	79.143
73.000000	79.071
74.000000	78.996
75.000000	78.920
76.199997	78.827
77.500000	78.725
78.800003	78.621
80.000000	78.525
81.199997	78.428
82.500000	78.324
83.800003	78.222
85.000000	78.129
86.199997	78.037
87.500000	77.940
88.500000	77.866
90.000000	77.759
91.199997	77.677
92.500000	77.590
93.800003	77.506
95.000000	77.431
96.199997	77.359
97.500000	77.282
98.800003	77.208
100.000000	77.142
101.500000	77.061
103.000000	76.982
104.400002	76.911
106.000000	76.831
107.500000	76.758
109.000000	76.686
110.599998	76.613
112.000000	76.550
113.800003	76.472
115.000000	76.421
117.199997	76.331
118.000000	76.299
120.599998	76.200
122.000000	76.149
124.099998	76.078
125.000000	76.048
126.500000	76.001
128.000000	75.956
131.500000	75.861
132.000000	75.848
134.000000	75.800
136.000000	75.754
138.000000	75.709
140.000000	75.666
143.000000	75.602
145.000000	75.560
147.500000	75.509
150.000000	75.458
152.500000	75.407
155.000000	75.356
157.500000	75.307
160.000000	75.258
162.500000	75.212
165.000000	75.168
167.500000	75.127
170.000000	75.089
172.500000	75.055
175.000000	75.025
177.500000	74.997
180.000000	74.974
182.500000	74.953
185.000000	74.936
187.500000	74.922
190.000000	74.910
192.500000	74.901
195.000000	74.893
197.500000	74.887
200.000000	74.883
203.000000	74.881
206.000000	74.883
209.000000	74.889
212.000000	74.899
214.000000	74.907
218.000000	74.930
220.000000	74.944
224.000000	74.976
227.000000	75.003
230.000000	75.033
233.000000	75.066
236.000000	75.101
240.000000	75.152
243.000000	75.192
247.000000	75.249
250.000000	75.293
254.000000	75.354
258.000000	75.418
262.000000	75.483
265.000000	75.533
269.000000	75.601
272.000000	75.652
276.000000	75.720
280.000000	75.788
285.000000	75.873
290.000000	75.957
295.000000	76.041
300.000000	76.125
304.000000	76.192
307.000000	76.241
311.000000	76.307
315.000000	76.371
320.000000	76.449
325.000000	76.525
330.000000	76.599
335.000000	76.671
340.000000	76.739
345.000000	76.805
350.000000	76.867
355.000000	76.926
360.000000	76.980
365.000000	77.031
370.000000	77.079
375.000000	77.122
382.000000	77.177
387.000000	77.211
395.000000	77.257
400.000000	77.281
406.000000	77.304
412.000000	77.322
418.000000	77.334
425.000000	77.342
431.000000	77.342
437.000000	77.339
444.000000	77.329
450.000000	77.317
455.000000	77.305
462.000000	77.287
468.000000	77.268
475.000000	77.245
482.000000	77.220
487.000000	77.200
494.000000	77.170
500.000000	77.141
508.000000	77.100
515.000000	77.061
522.000000	77.020
530.000000	76.971
538.000000	76.921
545.000000	76.876
552.000000	76.831
560.000000	76.780
570.000000	76.715
580.000000	76.650
590.000000	76.587
600.000000	76.526
608.000000	76.480
615.000000	76.441
622.000000	76.405
630.000000	76.366
640.000000	76.321
650.000000	76.276
660.000000	76.232
670.000000	76.186
680.000000	76.140
690.000000	76.095
700.000000	76.048
710.000000	76.002
720.000000	75.954
730.000000	75.907
740.000000	75.860
750.000000	75.815
762.000000	75.765
775.000000	75.716
788.000000	75.673
800.000000	75.636
812.000000	75.601
825.000000	75.562
838.000000	75.520
850.000000	75.478
862.000000	75.434
875.000000	75.385
885.000000	75.352
900.000000	75.317
912.000000	75.310
925.000000	75.326
938.000000	75.366
950.000000	75.418
962.000000	75.484
975.000000	75.569
988.000000	75.673
1000.000000	75.789
1015.000000	75.958
1030.000000	76.134
1044.000000	76.280
1060.000000	76.402
1075.000000	76.468
1090.000000	76.495
1106.000000	76.494
1120.000000	76.480
1138.000000	76.453
1150.000000	76.434
1172.000000	76.398
1180.000000	76.386
1206.000000	76.346
1220.000000	76.324
1241.000000	76.286
1250.000000	76.268
1265.000000	76.234
1280.000000	76.196
1315.000000	76.107
1320.000000	76.095
1340.000000	76.052
1360.000000	76.016
1380.000000	75.988
1400.000000	75.967
1430.000000	75.950
1450.000000	75.950
1475.000000	75.965
1500.000000	75.998
1525.000000	76.051
1550.000000	76.125
1575.000000	76.224
1600.000000	76.348
1625.000000	76.501
1650.000000	76.679
1675.000000	76.879
1700.000000	77.097
1725.000000	77.323
1750.000000	77.553
1775.000000	77.778
1800.000000	77.991
1825.000000	78.185
1850.000000	78.356
1875.000000	78.497
1900.000000	78.607
1925.000000	78.684
1950.000000	78.731
1975.000000	78.752
2000.000000	78.751
2030.000000	78.730
2060.000000	78.696
2090.000000	78.655
2120.000000	78.613
2140.000000	78.587
2180.000000	78.541
2200.000000	78.522
2240.000000	78.495
2270.000000	78.483
2300.000000	78.479
2330.000000	78.484
2360.000000	78.500
2400.000000	78.554
2430.000000	78.640
2470.000000	78.857
2500.000000	79.127
2540.000000	79.655
2580.000000	80.357
2620.000000	81.169
2650.000000	81.803
2690.000000	82.630
2720.000000	83.210
2760.000000	83.911
2800.000000	84.516
2850.000000	85.135
2900.000000	85.611
2950.000000	85.970
3000.000000	86.239
3040.000000	86.407
3070.000000	86.510
3110.000000	86.620
3150.000000	86.700
3200.000000	86.754
3250.000000	86.746
3300.000000	86.660
3350.000000	86.477
3400.000000	86.186
3450.000000	85.791
3500.000000	85.305
3550.000000	84.748
3600.000000	84.143
3650.000000	83.513
3700.000000	82.883
3750.000000	82.285
3820.000000	81.562
3870.000000	81.172
3950.000000	80.825
4000.000000	80.776
4060.000000	80.845
4120.000000	80.996
4180.000000	81.170
4250.000000	81.344
4310.000000	81.437
4370.000000	81.465
4440.000000	81.418
4500.000000	81.323
4550.000000	81.222
4620.000000	81.080
4680.000000	80.988
4750.000000	80.953
4820.000000	81.012
4870.000000	81.108
4940.000000	81.308
5000.000000	81.530
5080.000000	81.891
5150.000000	82.263
5220.000000	82.678
5300.000000	83.173
5380.000000	83.643
5450.000000	83.983
5520.000000	84.212
5600.000000	84.289
5700.000000	84.040
5800.000000	83.366
5900.000000	82.288
6000.000000	80.898
6080.000000	79.666
6150.000000	78.581
6220.000000	77.554
6300.000000	76.514
6400.000000	75.465
6500.000000	74.684
6600.000000	74.101
6700.000000	73.637
6800.000000	73.241
6900.000000	72.901
7000.000000	72.624
7100.000000	72.427
7200.000000	72.314
7300.000000	72.282
7400.000000	72.321
7500.000000	72.425
7620.000000	72.619
7750.000000	72.874
7880.000000	73.100
8000.000000	73.213
8120.000000	73.185
8250.000000	72.960
8380.000000	72.525
8500.000000	71.969
8620.000000	71.344
8750.000000	70.729
8850.000000	70.388
9000.000000	70.143
9120.000000	70.101
9250.000000	70.065
9380.000000	69.920
9500.000000	69.639
9620.000000	69.227
9750.000000	68.711
9880.000000	68.269
10000.000000	68.077
10150.000000	68.278
10300.000000	68.989
10440.000000	70.022
10600.000000	71.468
10750.000000	72.886
10900.000000	74.170
11060.000000	75.233
11200.000000	75.840
11380.000000	76.176
11500.000000	76.161
11720.000000	75.800
11800.000000	75.610
12060.000000	74.998
12200.000000	74.755
12410.000000	74.557
12500.000000	74.522
12650.000000	74.482
12800.000000	74.402
13150.000000	73.710
13200.000000	73.534
13400.000000	72.622
13600.000000	71.418
13800.000000	70.034
14000.000000	68.723
14300.000000	67.915
14500.000000	68.536
14750.000000	69.952
15000.000000	71.286
15250.000000	72.237
15500.000000	72.785
15750.000000	72.975
16000.000000	72.876
16250.000000	72.607
16500.000000	72.308
16750.000000	72.040
17000.000000	71.730
17250.000000	71.257
17500.000000	70.594
17750.000000	69.888
18000.000000	69.479
18250.000000	69.667
18500.000000	70.355
18750.000000	71.147
19000.000000	71.728
19250.000000	71.971
19500.000000	71.902
19750.000000	71.662
