* Measurement data measured by REW V5.20.13
* Source: Frequency Response Averaged data
* Format: Averaged data produced from the rms magnitudes of Grado SR60X R Stock Pads, Grado SR60X R Stock Pads, Grado SR60X R Stock Pads
* Dated: Apr 3, 2024 4:25:10 PM
* REW Settings:
*  C-weighting compensation: Off
*  Target level: 75.0 dB
* Note: Averaged data produced from the rms magnitudes of Grado SR60X R Stock Pads, Grado SR60X R Stock Pads, Grado SR60X R Stock Pads
* Measurement: RMS Average R stock
* Smoothing: 1/12 octave
* Frequency Step: 1/48 octave
* Start Frequency: 20.000 Hz
*
* Freq(Hz)	SPL(dB)
20.000000	56.402
20.299999	56.684
20.600000	56.967
20.900000	57.250
21.200001	57.530
21.400000	57.713
21.799999	58.069
22.000000	58.241
22.400000	58.572
22.700001	58.813
23.000000	59.049
23.299999	59.282
23.600000	59.512
24.000000	59.814
24.299999	60.034
24.700001	60.316
25.000000	60.520
25.400000	60.783
25.799999	61.044
26.200001	61.301
26.500000	61.490
26.900000	61.727
27.200001	61.890
27.600000	62.088
28.000000	62.273
28.500000	62.503
29.000000	62.746
29.500000	62.999
30.000000	63.250
30.400000	63.444
30.700001	63.586
31.100000	63.773
31.500000	63.956
32.000000	64.178
32.500000	64.386
33.000000	64.581
33.500000	64.767
34.000000	64.950
34.500000	65.132
35.000000	65.314
35.500000	65.490
36.000000	65.651
36.500000	65.794
37.000000	65.925
37.500000	66.058
38.200001	66.267
38.700001	66.428
39.500000	66.671
40.000000	66.808
40.599998	66.962
41.200001	67.110
41.799999	67.253
42.500000	67.414
43.099998	67.544
43.700001	67.659
44.400002	67.777
45.000000	67.873
45.500000	67.951
46.200001	68.050
46.799999	68.132
47.500000	68.248
48.200001	68.391
48.700001	68.496
49.400002	68.627
50.000000	68.724
50.799999	68.837
51.500000	68.926
52.200001	69.007
53.000000	69.100
53.799999	69.195
54.500000	69.277
55.200001	69.352
56.000000	69.432
57.000000	69.523
58.000000	69.609
59.000000	69.693
60.000000	69.775
60.799999	69.833
61.500000	69.872
62.200001	69.900
63.000000	69.922
64.000000	69.950
65.000000	69.987
66.000000	70.040
67.000000	70.104
68.000000	70.169
69.000000	70.225
70.000000	70.270
71.000000	70.301
72.000000	70.319
73.000000	70.330
74.000000	70.340
75.000000	70.354
76.199997	70.380
77.500000	70.421
78.800003	70.463
80.000000	70.494
81.199997	70.519
82.500000	70.543
83.800003	70.564
85.000000	70.581
86.199997	70.599
87.500000	70.620
88.500000	70.634
90.000000	70.648
91.199997	70.654
92.500000	70.660
93.800003	70.662
95.000000	70.658
96.199997	70.651
97.500000	70.642
98.800003	70.635
100.000000	70.629
101.500000	70.619
103.000000	70.609
104.400002	70.600
106.000000	70.589
107.500000	70.578
109.000000	70.566
110.599998	70.547
112.000000	70.526
113.800003	70.499
115.000000	70.482
117.199997	70.448
118.000000	70.435
120.599998	70.388
122.000000	70.359
124.099998	70.316
125.000000	70.301
126.500000	70.277
128.000000	70.253
131.500000	70.185
132.000000	70.175
134.000000	70.136
136.000000	70.104
138.000000	70.074
140.000000	70.036
143.000000	69.961
145.000000	69.910
147.500000	69.846
150.000000	69.781
152.500000	69.716
155.000000	69.650
157.500000	69.584
160.000000	69.526
162.500000	69.483
165.000000	69.457
167.500000	69.455
170.000000	69.492
172.500000	69.573
175.000000	69.682
177.500000	69.790
180.000000	69.872
182.500000	69.915
185.000000	69.919
187.500000	69.890
190.000000	69.842
192.500000	69.783
195.000000	69.719
197.500000	69.654
200.000000	69.587
203.000000	69.504
206.000000	69.419
209.000000	69.332
212.000000	69.243
214.000000	69.183
218.000000	69.064
220.000000	69.003
224.000000	68.880
227.000000	68.786
230.000000	68.691
233.000000	68.592
236.000000	68.492
240.000000	68.357
243.000000	68.257
247.000000	68.128
250.000000	68.039
254.000000	67.944
258.000000	67.909
262.000000	67.975
265.000000	68.118
269.000000	68.449
272.000000	68.795
276.000000	69.335
280.000000	69.882
285.000000	70.455
290.000000	70.837
295.000000	71.033
300.000000	71.087
304.000000	71.065
307.000000	71.025
311.000000	70.955
315.000000	70.874
320.000000	70.770
325.000000	70.671
330.000000	70.580
335.000000	70.497
340.000000	70.422
345.000000	70.355
350.000000	70.294
355.000000	70.239
360.000000	70.190
365.000000	70.145
370.000000	70.106
375.000000	70.068
382.000000	70.019
387.000000	69.985
395.000000	69.934
400.000000	69.906
406.000000	69.878
412.000000	69.853
418.000000	69.834
425.000000	69.815
431.000000	69.801
437.000000	69.789
444.000000	69.776
450.000000	69.766
455.000000	69.758
462.000000	69.747
468.000000	69.740
475.000000	69.734
482.000000	69.730
487.000000	69.728
494.000000	69.727
500.000000	69.728
508.000000	69.731
515.000000	69.736
522.000000	69.743
530.000000	69.752
538.000000	69.760
545.000000	69.765
552.000000	69.770
560.000000	69.778
570.000000	69.796
580.000000	69.818
590.000000	69.843
600.000000	69.869
608.000000	69.890
615.000000	69.908
622.000000	69.925
630.000000	69.946
640.000000	69.975
650.000000	70.007
660.000000	70.041
670.000000	70.073
680.000000	70.101
690.000000	70.125
700.000000	70.147
710.000000	70.169
720.000000	70.191
730.000000	70.212
740.000000	70.232
750.000000	70.253
762.000000	70.280
775.000000	70.311
788.000000	70.346
800.000000	70.384
812.000000	70.423
825.000000	70.465
838.000000	70.508
850.000000	70.551
862.000000	70.594
875.000000	70.640
885.000000	70.675
900.000000	70.725
912.000000	70.761
925.000000	70.797
938.000000	70.831
950.000000	70.864
962.000000	70.898
975.000000	70.940
988.000000	70.982
1000.000000	71.020
1015.000000	71.064
1030.000000	71.106
1044.000000	71.146
1060.000000	71.192
1075.000000	71.239
1090.000000	71.288
1106.000000	71.342
1120.000000	71.391
1138.000000	71.459
1150.000000	71.507
1172.000000	71.598
1180.000000	71.633
1206.000000	71.752
1220.000000	71.814
1241.000000	71.904
1250.000000	71.945
1265.000000	72.026
1280.000000	72.123
1315.000000	72.386
1320.000000	72.423
1340.000000	72.572
1360.000000	72.718
1380.000000	72.861
1400.000000	73.001
1430.000000	73.228
1450.000000	73.420
1475.000000	73.697
1500.000000	73.988
1525.000000	74.295
1550.000000	74.614
1575.000000	74.945
1600.000000	75.310
1625.000000	75.708
1650.000000	76.120
1675.000000	76.553
1700.000000	77.025
1725.000000	77.552
1750.000000	78.149
1775.000000	78.809
1800.000000	79.511
1825.000000	80.244
1850.000000	80.993
1875.000000	81.736
1900.000000	82.465
1925.000000	83.166
1950.000000	83.808
1975.000000	84.370
2000.000000	84.840
2030.000000	85.254
2060.000000	85.451
2090.000000	85.404
2120.000000	85.131
2140.000000	84.865
2180.000000	84.294
2200.000000	84.035
2240.000000	83.586
2270.000000	83.322
2300.000000	83.157
2330.000000	83.087
2360.000000	83.051
2400.000000	82.927
2430.000000	82.769
2470.000000	82.574
2500.000000	82.495
2540.000000	82.465
2580.000000	82.414
2620.000000	82.239
2650.000000	82.029
2690.000000	81.712
2720.000000	81.507
2760.000000	81.352
2800.000000	81.319
2850.000000	81.310
2900.000000	81.264
2950.000000	81.196
3000.000000	81.111
3040.000000	81.045
3070.000000	81.010
3110.000000	80.992
3150.000000	80.994
3200.000000	81.023
3250.000000	81.086
3300.000000	81.133
3350.000000	81.079
3400.000000	80.867
3450.000000	80.524
3500.000000	80.149
3550.000000	79.807
3600.000000	79.461
3650.000000	79.083
3700.000000	78.722
3750.000000	78.471
3820.000000	78.422
3870.000000	78.606
3950.000000	79.200
4000.000000	79.699
4060.000000	80.382
4120.000000	81.127
4180.000000	81.924
4250.000000	82.905
4310.000000	83.720
4370.000000	84.383
4440.000000	84.833
4500.000000	84.935
4550.000000	84.869
4620.000000	84.625
4680.000000	84.290
4750.000000	83.699
4820.000000	82.869
4870.000000	82.164
4940.000000	81.129
5000.000000	80.312
5080.000000	79.464
5150.000000	78.938
5220.000000	78.532
5300.000000	78.144
5380.000000	77.829
5450.000000	77.635
5520.000000	77.519
5600.000000	77.441
5700.000000	77.365
5800.000000	77.302
5900.000000	77.288
6000.000000	77.359
6080.000000	77.485
6150.000000	77.640
6220.000000	77.828
6300.000000	78.076
6400.000000	78.415
6500.000000	78.737
6600.000000	78.974
6700.000000	79.044
6800.000000	78.862
6900.000000	78.389
7000.000000	77.670
7100.000000	76.853
7200.000000	76.120
7300.000000	75.593
7400.000000	75.320
7500.000000	75.235
7620.000000	75.159
7750.000000	75.030
7880.000000	75.103
8000.000000	75.468
8120.000000	76.023
8250.000000	76.742
8380.000000	77.547
8500.000000	78.339
8620.000000	79.097
8750.000000	79.733
8850.000000	80.014
9000.000000	80.016
9120.000000	79.620
9250.000000	78.787
9380.000000	77.571
9500.000000	76.164
9620.000000	74.540
9750.000000	72.587
9880.000000	70.482
10000.000000	68.469
10150.000000	66.083
10300.000000	64.426
10440.000000	64.112
10600.000000	65.007
10750.000000	66.382
10900.000000	67.841
11060.000000	69.253
11200.000000	70.287
11380.000000	71.340
11500.000000	71.899
11720.000000	72.685
11800.000000	72.896
12060.000000	73.295
12200.000000	73.320
12410.000000	73.056
12500.000000	72.814
12650.000000	72.242
12800.000000	71.518
13150.000000	69.984
13200.000000	69.845
13400.000000	69.510
13600.000000	69.400
13800.000000	69.334
14000.000000	69.150
14300.000000	68.358
14500.000000	67.393
14750.000000	65.891
15000.000000	64.713
15250.000000	64.626
15500.000000	65.738
15750.000000	67.561
16000.000000	69.500
16250.000000	71.124
16500.000000	72.180
16750.000000	72.534
17000.000000	72.171
17250.000000	71.187
17500.000000	69.737
17750.000000	67.984
18000.000000	66.094
18250.000000	64.245
18500.000000	62.604
18750.000000	61.234
19000.000000	60.018
19250.000000	58.765
19500.000000	57.374
19750.000000	55.950
