* Measurement data measured by REW V5.20.13
* Source: EXCL: Headset (USB-C to 3.5mm Headphone Jack Adapter), MICROPHONE (Master Volume), 0, volume: 0.260. Timing signal peak level -38.6 dBFS, measurement signal peak level -31.3 dBFS
* Format: 256k Log Swept Sine, 1 sweep at -12.0 dBFS using an acoustic timing reference
* Dated: Apr 3, 2024 4:22:52 PM
* REW Settings:
*  C-weighting compensation: Off
*  Target level: 75.0 dB
* Note: Delay -0.0312 ms (-11 mm, -0.42 in) using estimated IR delay relative to Acoustic reference played from SPEAKER L with no timing offset Clock adjustment: -38.6 ppm
* Measurement: Grado SR60X L Yaxi S Cush
* Smoothing: 1/12 octave
* Frequency Step: 1/48 octave
* Start Frequency: 20.000 Hz
*
* Freq(Hz)	SPL(dB)	Phase(degrees)
20.000000	52.605	-131.9365
20.299999	52.946	-133.8918
20.600000	53.240	-135.8408
20.900000	53.493	-137.6127
21.200001	53.725	-139.0912
21.400000	53.882	-139.9084
21.799999	54.223	-141.3001
22.000000	54.409	-141.9664
22.400000	54.801	-143.4070
22.700001	55.092	-144.6642
23.000000	55.367	-146.0582
23.299999	55.621	-147.5327
23.600000	55.854	-149.0240
24.000000	56.141	-150.9627
24.299999	56.347	-152.3575
24.700001	56.620	-154.1341
25.000000	56.829	-155.4118
25.400000	57.122	-157.0710
25.799999	57.441	-158.7563
26.200001	57.779	-160.5865
26.500000	58.036	-162.1142
26.900000	58.360	-164.3596
27.200001	58.577	-166.1439
27.600000	58.830	-168.4950
28.000000	59.050	-170.6418
28.500000	59.323	-172.8952
29.000000	59.637	-174.7977
29.500000	59.998	-176.6573
30.000000	60.370	-178.7275
30.400000	60.646	179.4462
30.700001	60.830	178.0305
31.100000	61.042	176.1801
31.500000	61.224	174.4857
32.000000	61.436	172.6829
32.500000	61.667	171.1490
33.000000	61.926	169.5815
33.500000	62.175	167.7115
34.000000	62.359	165.6105
34.500000	62.460	163.7114
35.000000	62.537	162.4515
35.500000	62.688	161.7973
36.000000	62.959	161.1716
36.500000	63.301	159.9543
37.000000	63.618	158.0061
37.500000	63.857	155.6771
38.200001	64.094	152.5811
38.700001	64.245	150.6658
39.500000	64.494	147.8409
40.000000	64.642	146.1641
40.599998	64.813	144.3121
41.200001	64.990	142.6035
41.799999	65.170	140.9297
42.500000	65.368	138.9948
43.099998	65.527	137.4123
43.700001	65.687	135.8822
44.400002	65.874	134.0499
45.000000	66.023	132.3992
45.500000	66.134	130.9950
46.200001	66.268	129.0563
46.799999	66.371	127.4776
47.500000	66.492	125.7599
48.200001	66.627	124.1124
48.700001	66.731	122.9103
49.400002	66.875	121.1322
50.000000	66.980	119.5508
50.799999	67.089	117.5243
51.500000	67.169	115.9636
52.200001	67.260	114.5821
53.000000	67.382	113.0528
53.799999	67.503	111.5077
54.500000	67.605	110.2175
55.200001	67.715	108.9911
56.000000	67.849	107.5539
57.000000	68.003	105.6563
58.000000	68.134	103.8351
59.000000	68.270	102.0838
60.000000	68.400	100.1993
60.799999	68.478	98.6239
61.500000	68.525	97.3056
62.200001	68.562	96.0965
63.000000	68.606	94.8306
64.000000	68.669	93.3330
65.000000	68.739	91.8411
66.000000	68.807	90.2974
67.000000	68.864	88.6896
68.000000	68.903	87.0632
69.000000	68.933	85.4725
70.000000	68.962	83.9188
71.000000	68.987	82.3764
72.000000	68.995	80.9357
73.000000	68.992	79.8215
74.000000	69.021	79.0734
75.000000	69.103	78.3842
76.199997	69.220	77.2737
77.500000	69.310	75.8130
78.800003	69.362	74.2905
80.000000	69.389	72.8676
81.199997	69.403	71.4634
82.500000	69.407	70.0377
83.800003	69.408	68.7527
85.000000	69.410	67.6904
86.199997	69.414	66.7147
87.500000	69.419	65.7077
88.500000	69.424	64.9583
90.000000	69.442	63.8673
91.199997	69.470	62.9810
92.500000	69.508	61.9453
93.800003	69.538	60.8574
95.000000	69.552	59.9068
96.199997	69.560	59.0658
97.500000	69.569	58.2570
98.800003	69.577	57.5052
100.000000	69.582	56.8292
101.500000	69.581	55.9756
103.000000	69.576	55.0887
104.400002	69.573	54.2068
106.000000	69.576	53.1174
107.500000	69.577	52.0568
109.000000	69.570	51.0406
110.599998	69.556	50.0629
112.000000	69.549	49.2598
113.800003	69.552	48.2099
115.000000	69.558	47.4913
117.199997	69.555	46.2860
118.000000	69.547	45.9331
120.599998	69.497	44.9869
122.000000	69.450	44.5104
124.099998	69.383	43.8292
125.000000	69.366	43.5219
126.500000	69.357	42.9643
128.000000	69.360	42.3778
131.500000	69.349	41.1323
132.000000	69.345	40.9729
134.000000	69.330	40.3384
136.000000	69.316	39.6718
138.000000	69.296	39.0345
140.000000	69.273	38.5082
143.000000	69.247	37.7748
145.000000	69.220	37.2482
147.500000	69.171	36.6711
150.000000	69.120	36.1646
152.500000	69.070	35.6573
155.000000	69.025	35.1739
157.500000	68.998	34.7284
160.000000	68.985	34.3190
162.500000	68.971	34.0309
165.000000	68.953	33.8655
167.500000	68.931	33.6484
170.000000	68.909	33.2863
172.500000	68.897	32.8020
175.000000	68.894	32.2486
177.500000	68.891	31.7138
180.000000	68.885	31.2448
182.500000	68.875	30.8045
185.000000	68.851	30.3643
187.500000	68.809	29.9439
190.000000	68.754	29.5781
192.500000	68.697	29.2809
195.000000	68.642	29.0314
197.500000	68.589	28.7981
200.000000	68.535	28.5619
203.000000	68.471	28.2846
206.000000	68.409	28.0582
209.000000	68.350	27.8986
212.000000	68.290	27.7783
214.000000	68.249	27.7119
218.000000	68.165	27.6198
220.000000	68.122	27.6002
224.000000	68.032	27.6218
227.000000	67.961	27.7001
230.000000	67.887	27.8398
233.000000	67.812	28.0456
236.000000	67.737	28.3267
240.000000	67.635	28.8182
243.000000	67.553	29.2688
247.000000	67.439	30.0304
250.000000	67.356	30.7884
254.000000	67.257	32.0859
258.000000	67.184	33.6709
262.000000	67.165	35.5258
265.000000	67.207	37.0884
269.000000	67.357	39.3019
272.000000	67.545	40.9006
276.000000	67.895	42.6537
280.000000	68.327	43.6985
285.000000	68.890	43.7795
290.000000	69.370	42.5875
295.000000	69.709	40.5553
300.000000	69.910	38.2157
304.000000	69.992	36.4185
307.000000	70.017	35.1959
311.000000	70.012	33.7551
315.000000	69.976	32.5261
320.000000	69.907	31.2765
325.000000	69.826	30.3165
330.000000	69.745	29.5966
335.000000	69.669	29.0649
340.000000	69.600	28.6613
345.000000	69.535	28.3418
350.000000	69.474	28.0879
355.000000	69.414	27.8907
360.000000	69.360	27.7545
365.000000	69.312	27.6741
370.000000	69.268	27.6325
375.000000	69.226	27.6259
382.000000	69.172	27.6781
387.000000	69.139	27.7484
395.000000	69.090	27.8986
400.000000	69.063	28.0172
406.000000	69.034	28.1857
412.000000	69.010	28.3686
418.000000	68.990	28.5483
425.000000	68.970	28.7529
431.000000	68.954	28.9339
437.000000	68.942	29.1232
444.000000	68.930	29.3546
450.000000	68.921	29.5626
455.000000	68.914	29.7420
462.000000	68.905	29.9997
468.000000	68.898	30.2252
475.000000	68.892	30.4962
482.000000	68.890	30.7765
487.000000	68.891	30.9804
494.000000	68.895	31.2628
500.000000	68.900	31.4909
508.000000	68.904	31.7735
515.000000	68.907	32.0253
522.000000	68.909	32.3014
530.000000	68.916	32.6405
538.000000	68.923	32.9829
545.000000	68.927	33.2759
552.000000	68.929	33.5705
560.000000	68.933	33.9231
570.000000	68.946	34.3914
580.000000	68.967	34.8673
590.000000	68.992	35.3199
600.000000	69.017	35.7542
608.000000	69.036	36.1027
615.000000	69.053	36.4097
622.000000	69.070	36.7142
630.000000	69.090	37.0571
640.000000	69.117	37.4875
650.000000	69.149	37.9200
660.000000	69.183	38.3273
670.000000	69.217	38.6950
680.000000	69.249	39.0458
690.000000	69.278	39.3992
700.000000	69.305	39.7608
710.000000	69.331	40.1370
720.000000	69.355	40.5219
730.000000	69.380	40.9053
740.000000	69.403	41.2935
750.000000	69.425	41.6959
762.000000	69.450	42.2053
775.000000	69.480	42.7864
788.000000	69.515	43.3826
800.000000	69.554	43.9296
812.000000	69.593	44.4595
825.000000	69.636	45.0261
838.000000	69.682	45.6029
850.000000	69.729	46.1299
862.000000	69.777	46.6351
875.000000	69.826	47.1640
885.000000	69.863	47.5603
900.000000	69.920	48.1346
912.000000	69.962	48.5880
925.000000	70.006	49.0901
938.000000	70.049	49.6122
950.000000	70.091	50.1084
962.000000	70.135	50.6092
975.000000	70.185	51.1395
988.000000	70.233	51.6486
1000.000000	70.275	52.1083
1015.000000	70.321	52.6852
1030.000000	70.363	53.2794
1044.000000	70.399	53.8632
1060.000000	70.440	54.5767
1075.000000	70.481	55.2812
1090.000000	70.523	56.0090
1106.000000	70.569	56.8223
1120.000000	70.613	57.5701
1138.000000	70.676	58.5545
1150.000000	70.721	59.2140
1172.000000	70.808	60.4589
1180.000000	70.841	60.9254
1206.000000	70.959	62.4195
1220.000000	71.021	63.2208
1241.000000	71.114	64.5377
1250.000000	71.160	65.1644
1265.000000	71.252	66.2628
1280.000000	71.370	67.3373
1315.000000	71.686	69.3011
1320.000000	71.727	69.5267
1340.000000	71.876	70.3968
1360.000000	72.003	71.3129
1380.000000	72.118	72.3542
1400.000000	72.233	73.5542
1430.000000	72.443	75.6512
1450.000000	72.624	77.0988
1475.000000	72.876	78.7725
1500.000000	73.132	80.3898
1525.000000	73.406	82.0238
1550.000000	73.694	83.6293
1575.000000	73.997	85.3147
1600.000000	74.340	87.0807
1625.000000	74.721	88.7508
1650.000000	75.126	90.3491
1675.000000	75.568	91.9269
1700.000000	76.051	93.4230
1725.000000	76.583	94.8676
1750.000000	77.187	96.2094
1775.000000	77.864	97.1872
1800.000000	78.579	97.6158
1825.000000	79.313	97.4748
1850.000000	80.046	96.7081
1875.000000	80.753	95.3493
1900.000000	81.437	93.5428
1925.000000	82.104	91.2909
1950.000000	82.747	88.5046
1975.000000	83.347	85.1225
2000.000000	83.882	81.0764
2030.000000	84.387	75.3400
2060.000000	84.684	68.9667
2090.000000	84.754	62.5883
2120.000000	84.617	56.8822
2140.000000	84.444	53.7052
2180.000000	84.021	48.9337
2200.000000	83.811	47.1549
2240.000000	83.415	44.4683
2270.000000	83.162	43.1505
2300.000000	82.984	42.1931
2330.000000	82.885	41.1941
2360.000000	82.817	39.8700
2400.000000	82.666	37.8075
2430.000000	82.488	36.5722
2470.000000	82.259	35.7236
2500.000000	82.166	35.3713
2540.000000	82.146	34.5148
2580.000000	82.126	32.7321
2620.000000	81.962	30.5191
2650.000000	81.731	29.2048
2690.000000	81.349	28.4646
2720.000000	81.079	28.6820
2760.000000	80.827	29.5643
2800.000000	80.711	30.4323
2850.000000	80.649	30.9809
2900.000000	80.585	31.2177
2950.000000	80.506	31.4296
3000.000000	80.409	31.8300
3040.000000	80.342	32.4305
3070.000000	80.316	32.9803
3110.000000	80.302	33.7352
3150.000000	80.302	34.6315
3200.000000	80.371	36.1579
3250.000000	80.589	37.6801
3300.000000	80.900	38.4515
3350.000000	81.183	38.4296
3400.000000	81.396	38.2868
3450.000000	81.628	38.6453
3500.000000	82.002	39.2782
3550.000000	82.527	39.3683
3600.000000	83.125	38.3659
3650.000000	83.710	36.0761
3700.000000	84.208	32.5465
3750.000000	84.570	28.0696
3820.000000	84.812	21.0075
3870.000000	84.812	15.9350
3950.000000	84.590	8.3623
4000.000000	84.354	3.9994
4060.000000	83.989	-0.9612
4120.000000	83.525	-5.6420
4180.000000	82.946	-9.8557
4250.000000	82.128	-13.7991
4310.000000	81.333	-16.0770
4370.000000	80.499	-17.2488
4440.000000	79.542	-17.3497
4500.000000	78.787	-16.6152
4550.000000	78.223	-15.6544
4620.000000	77.524	-14.0396
4680.000000	76.990	-12.4810
4750.000000	76.426	-10.4703
4820.000000	75.916	-8.2616
4870.000000	75.584	-6.5796
4940.000000	75.155	-4.0942
5000.000000	74.815	-1.7645
5080.000000	74.427	1.7427
5150.000000	74.190	4.9907
5220.000000	74.047	8.0928
5300.000000	73.955	11.3317
5380.000000	73.907	14.3326
5450.000000	73.892	16.8556
5520.000000	73.905	19.3787
5600.000000	73.982	22.2727
5700.000000	74.188	25.6625
5800.000000	74.505	28.5971
5900.000000	74.933	30.9127
6000.000000	75.440	32.2118
6080.000000	75.855	32.4185
6150.000000	76.205	32.0298
6220.000000	76.531	31.1325
6300.000000	76.863	29.5156
6400.000000	77.196	26.6249
6500.000000	77.397	22.8188
6600.000000	77.416	18.3450
6700.000000	77.218	13.6710
6800.000000	76.784	9.4797
6900.000000	76.141	6.5026
7000.000000	75.372	5.1786
7100.000000	74.588	5.3839
7200.000000	73.864	6.6935
7300.000000	73.223	8.8626
7400.000000	72.689	11.7794
7500.000000	72.295	15.2568
7620.000000	72.047	19.7607
7750.000000	72.061	24.4694
7880.000000	72.346	28.4815
8000.000000	72.795	31.0331
8120.000000	73.327	32.0965
8250.000000	73.896	31.5740
8380.000000	74.414	29.5647
8500.000000	74.841	26.4016
8620.000000	75.177	21.6935
8750.000000	75.333	14.6675
8850.000000	75.219	8.1809
9000.000000	74.539	-1.7568
9120.000000	73.500	-7.7843
9250.000000	71.906	-9.8892
9380.000000	70.014	-5.9906
9500.000000	68.396	2.0396
9620.000000	67.405	11.5132
9750.000000	67.189	20.1677
9880.000000	67.440	25.8534
10000.000000	67.741	29.1047
10150.000000	68.102	31.9421
10300.000000	68.520	34.0641
10440.000000	68.984	35.0212
10600.000000	69.500	34.3716
10750.000000	69.852	32.1904
10900.000000	70.010	29.1053
11060.000000	69.956	25.7762
11200.000000	69.781	23.5029
11380.000000	69.546	21.5559
11500.000000	69.450	20.4416
11720.000000	69.382	17.4958
11800.000000	69.351	15.9419
12060.000000	68.991	9.6388
12200.000000	68.560	6.4279
12410.000000	67.640	3.5900
12500.000000	67.194	3.3735
12650.000000	66.485	4.3341
12800.000000	65.945	6.5338
13150.000000	65.853	12.5997
13200.000000	65.977	13.1747
13400.000000	66.671	13.6000
13600.000000	67.385	10.2969
13800.000000	67.840	3.9595
14000.000000	67.993	-3.7921
14300.000000	67.799	-16.1244
14500.000000	67.427	-24.4373
14750.000000	66.644	-34.0623
15000.000000	65.518	-40.9666
15250.000000	64.326	-43.6552
15500.000000	63.697	-43.3557
15750.000000	64.066	-43.8221
16000.000000	65.139	-48.3881
16250.000000	66.369	-58.8213
16500.000000	67.337	-75.5403
16750.000000	67.791	-97.5032
17000.000000	67.619	-122.5421
17250.000000	66.810	-148.1387
17500.000000	65.404	-171.9180
17750.000000	63.468	168.1923
18000.000000	61.158	153.0573
18250.000000	58.804	141.3408
18500.000000	56.887	130.1434
18750.000000	55.815	116.4084
19000.000000	55.559	98.0647
19250.000000	55.778	74.8450
19500.000000	56.189	48.6484
19750.000000	56.603	24.0850
