* Measurement data measured by REW V5.20.13
* Source: EXCL: Headset (USB-C to 3.5mm Headphone Jack Adapter), MICROPHONE (Master Volume), 0, volume: 0.260. Timing signal peak level -33.9 dBFS, measurement signal peak level -33.9 dBFS
* Format: 256k Log Swept Sine, 1 sweep at -12.0 dBFS using an acoustic timing reference
* Dated: Apr 3, 2024 4:23:36 PM
* REW Settings:
*  C-weighting compensation: Off
*  Target level: 75.0 dB
* Note: Delay -0.0283 ms (-9.7 mm, -0.38 in) using estimated IR delay relative to Acoustic reference played from SPEAKER L with no timing offset Clock adjustment: -37.9 ppm
* Measurement: Grado SR60X L Grado G Pad
* Smoothing: 1/12 octave
* Frequency Step: 1/48 octave
* Start Frequency: 20.000 Hz
*
* Freq(Hz)	SPL(dB)	Phase(degrees)
20.000000	56.397	-151.7871
20.299999	56.710	-153.7066
20.600000	56.982	-155.5792
20.900000	57.225	-157.2966
21.200001	57.455	-158.8070
21.400000	57.612	-159.7066
21.799999	57.943	-161.3649
22.000000	58.119	-162.1847
22.400000	58.481	-163.9084
22.700001	58.748	-165.3143
23.000000	59.001	-166.7887
23.299999	59.239	-168.2762
23.600000	59.467	-169.7245
24.000000	59.767	-171.5607
24.299999	59.998	-172.8979
24.700001	60.315	-174.7113
25.000000	60.553	-176.1404
25.400000	60.859	-178.1469
25.799999	61.144	179.7898
26.200001	61.409	177.7529
26.500000	61.599	176.2750
26.900000	61.848	174.3762
27.200001	62.035	172.9958
27.600000	62.284	171.1898
28.000000	62.535	169.3965
28.500000	62.847	167.1199
29.000000	63.144	164.7468
29.500000	63.406	162.2955
30.000000	63.622	159.9150
30.400000	63.770	158.1780
30.700001	63.877	156.9966
31.100000	64.025	155.5447
31.500000	64.182	154.1335
32.000000	64.377	152.2851
32.500000	64.542	150.3296
33.000000	64.663	148.4287
33.500000	64.751	146.7536
34.000000	64.835	145.3402
34.500000	64.931	144.0938
35.000000	65.042	142.8914
35.500000	65.159	141.6619
36.000000	65.275	140.3762
36.500000	65.380	139.0240
37.000000	65.459	137.6408
37.500000	65.503	136.3435
38.200001	65.518	135.0049
38.700001	65.530	134.5537
39.500000	65.645	134.5715
40.000000	65.801	134.7617
40.599998	66.062	134.8723
41.200001	66.376	134.7065
41.799999	66.715	134.2047
42.500000	67.115	133.1688
43.099998	67.437	131.9260
43.700001	67.725	130.4549
44.400002	68.018	128.6044
45.000000	68.240	126.9788
45.500000	68.410	125.6097
46.200001	68.626	123.6750
46.799999	68.792	122.0070
47.500000	68.964	120.0687
48.200001	69.113	118.1948
48.700001	69.210	116.9384
49.400002	69.350	115.3006
50.000000	69.480	113.9429
50.799999	69.661	112.0709
51.500000	69.809	110.3604
52.200001	69.938	108.6668
53.000000	70.070	106.8525
53.799999	70.200	105.1686
54.500000	70.313	103.7360
55.200001	70.415	102.3139
56.000000	70.512	100.7577
57.000000	70.610	99.0128
58.000000	70.701	97.4690
59.000000	70.796	96.0417
60.000000	70.900	94.6108
60.799999	70.986	93.3945
61.500000	71.058	92.2790
62.200001	71.125	91.1421
63.000000	71.197	89.8549
64.000000	71.289	88.3121
65.000000	71.390	86.8456
66.000000	71.498	85.4263
67.000000	71.610	84.0505
68.000000	71.724	82.6400
69.000000	71.816	81.0908
70.000000	71.860	79.5327
71.000000	71.875	78.1763
72.000000	71.896	76.9943
73.000000	71.933	75.8270
74.000000	71.976	74.6227
75.000000	72.019	73.4235
76.199997	72.073	72.0235
77.500000	72.129	70.5612
78.800003	72.179	69.1694
80.000000	72.221	67.9369
81.199997	72.266	66.7095
82.500000	72.317	65.2989
83.800003	72.351	63.8167
85.000000	72.365	62.5446
86.199997	72.380	61.4072
87.500000	72.401	60.2613
88.500000	72.418	59.4049
90.000000	72.439	58.1343
91.199997	72.449	57.1259
92.500000	72.454	56.0573
93.800003	72.457	55.0321
95.000000	72.460	54.1293
96.199997	72.464	53.2627
97.500000	72.470	52.3319
98.800003	72.472	51.3736
100.000000	72.466	50.4795
101.500000	72.453	49.4006
103.000000	72.442	48.3825
104.400002	72.439	47.4804
106.000000	72.438	46.5324
107.500000	72.434	45.7727
109.000000	72.426	45.1584
110.599998	72.412	44.6395
112.000000	72.404	44.2028
113.800003	72.407	43.4184
115.000000	72.411	42.6511
117.199997	72.394	40.9734
118.000000	72.383	40.4121
120.599998	72.353	38.9754
122.000000	72.318	38.4217
124.099998	72.215	37.8260
125.000000	72.163	37.6328
126.500000	72.097	37.2968
128.000000	72.078	36.8125
131.500000	72.165	35.1505
132.000000	72.179	34.9109
134.000000	72.208	34.1036
136.000000	72.198	33.5099
138.000000	72.164	32.9584
140.000000	72.125	32.3889
143.000000	72.083	31.5447
145.000000	72.061	30.9856
147.500000	72.027	30.2878
150.000000	72.001	29.6041
152.500000	71.991	28.9483
155.000000	71.975	28.4174
157.500000	71.942	27.9930
160.000000	71.880	27.5253
162.500000	71.796	27.0227
165.000000	71.721	26.6196
167.500000	71.687	26.3231
170.000000	71.688	26.0737
172.500000	71.711	25.8599
175.000000	71.751	25.6056
177.500000	71.798	25.1948
180.000000	71.843	24.5680
182.500000	71.870	23.7606
185.000000	71.863	22.8767
187.500000	71.815	22.0228
190.000000	71.733	21.2600
192.500000	71.632	20.6259
195.000000	71.526	20.1394
197.500000	71.425	19.8007
200.000000	71.335	19.6013
203.000000	71.243	19.5137
206.000000	71.170	19.5268
209.000000	71.109	19.5648
212.000000	71.052	19.5842
214.000000	71.016	19.5786
218.000000	70.953	19.5123
220.000000	70.926	19.4541
224.000000	70.873	19.3091
227.000000	70.830	19.1966
230.000000	70.780	19.1071
233.000000	70.724	19.0529
236.000000	70.665	19.0204
240.000000	70.576	18.9848
243.000000	70.500	18.9918
247.000000	70.392	19.1318
250.000000	70.308	19.3632
254.000000	70.187	19.8530
258.000000	70.053	20.6119
262.000000	69.918	21.7325
265.000000	69.830	22.8607
269.000000	69.768	24.7778
272.000000	69.794	26.4724
276.000000	69.958	28.8477
280.000000	70.274	30.9500
285.000000	70.825	32.4906
290.000000	71.408	32.3469
295.000000	71.878	30.6850
300.000000	72.167	28.1998
304.000000	72.275	26.1022
307.000000	72.303	24.6241
311.000000	72.294	22.8851
315.000000	72.248	21.4529
320.000000	72.161	20.0591
325.000000	72.062	19.0079
330.000000	71.964	18.2115
335.000000	71.869	17.6016
340.000000	71.778	17.0983
345.000000	71.690	16.6722
350.000000	71.606	16.3320
355.000000	71.526	16.0706
360.000000	71.451	15.8669
365.000000	71.379	15.7048
370.000000	71.308	15.5813
375.000000	71.237	15.4993
382.000000	71.137	15.4808
387.000000	71.067	15.5492
395.000000	70.959	15.7745
400.000000	70.899	15.9817
406.000000	70.840	16.2995
412.000000	70.798	16.6703
418.000000	70.774	17.0511
425.000000	70.762	17.4558
431.000000	70.760	17.7466
437.000000	70.762	17.9849
444.000000	70.768	18.2032
450.000000	70.775	18.3466
455.000000	70.779	18.4430
462.000000	70.783	18.5579
468.000000	70.783	18.6511
475.000000	70.779	18.7626
482.000000	70.772	18.8776
487.000000	70.766	18.9640
494.000000	70.757	19.0934
500.000000	70.751	19.2083
508.000000	70.743	19.3588
515.000000	70.736	19.4857
522.000000	70.727	19.6102
530.000000	70.715	19.7560
538.000000	70.702	19.9102
545.000000	70.689	20.0637
552.000000	70.673	20.2452
560.000000	70.656	20.4846
570.000000	70.640	20.8060
580.000000	70.632	21.1385
590.000000	70.632	21.4799
600.000000	70.639	21.7940
608.000000	70.644	22.0209
615.000000	70.645	22.2170
622.000000	70.646	22.4207
630.000000	70.647	22.6598
640.000000	70.650	22.9613
650.000000	70.655	23.2676
660.000000	70.663	23.5643
670.000000	70.673	23.8305
680.000000	70.683	24.0732
690.000000	70.689	24.3133
700.000000	70.692	24.5593
710.000000	70.691	24.8187
720.000000	70.689	25.0928
730.000000	70.689	25.3781
740.000000	70.688	25.6768
750.000000	70.687	25.9933
762.000000	70.688	26.3958
775.000000	70.692	26.8466
788.000000	70.701	27.2987
800.000000	70.714	27.7053
812.000000	70.729	28.0967
825.000000	70.743	28.5203
838.000000	70.757	28.9633
850.000000	70.774	29.3782
862.000000	70.796	29.7661
875.000000	70.820	30.1428
885.000000	70.838	30.4108
900.000000	70.863	30.7914
912.000000	70.880	31.0854
925.000000	70.892	31.4113
938.000000	70.899	31.7693
950.000000	70.906	32.1371
962.000000	70.918	32.5269
975.000000	70.936	32.9358
988.000000	70.956	33.2916
1000.000000	70.968	33.5812
1015.000000	70.972	33.9555
1030.000000	70.971	34.3872
1044.000000	70.967	34.8375
1060.000000	70.964	35.4044
1075.000000	70.967	35.9666
1090.000000	70.972	36.5385
1106.000000	70.978	37.1578
1120.000000	70.984	37.7103
1138.000000	70.992	38.4442
1150.000000	70.997	38.9528
1172.000000	71.011	39.9506
1180.000000	71.018	40.3412
1206.000000	71.061	41.6644
1220.000000	71.088	42.3483
1241.000000	71.113	43.3600
1250.000000	71.120	43.8444
1265.000000	71.140	44.7646
1280.000000	71.187	45.7720
1315.000000	71.387	47.7881
1320.000000	71.417	48.0066
1340.000000	71.522	48.7808
1360.000000	71.598	49.5270
1380.000000	71.651	50.3863
1400.000000	71.694	51.4696
1430.000000	71.815	53.6062
1450.000000	71.974	55.0878
1475.000000	72.231	56.5477
1500.000000	72.485	57.5369
1525.000000	72.711	58.2897
1550.000000	72.909	58.9940
1575.000000	73.094	59.8026
1600.000000	73.295	60.7473
1625.000000	73.527	61.6432
1650.000000	73.764	62.3694
1675.000000	73.993	63.0245
1700.000000	74.216	63.7472
1725.000000	74.460	64.7126
1750.000000	74.786	65.8970
1775.000000	75.220	66.8729
1800.000000	75.721	67.1914
1825.000000	76.235	66.7146
1850.000000	76.728	65.3974
1875.000000	77.147	63.1910
1900.000000	77.433	60.3102
1925.000000	77.566	57.2672
1950.000000	77.578	54.5964
1975.000000	77.547	52.4210
2000.000000	77.509	50.3394
2030.000000	77.378	47.6180
2060.000000	77.066	45.2617
2090.000000	76.590	44.2400
2120.000000	76.076	45.0859
2140.000000	75.801	46.5274
2180.000000	75.548	50.0814
2200.000000	75.535	51.7284
2240.000000	75.630	54.8434
2270.000000	75.835	57.0797
2300.000000	76.149	58.7266
2330.000000	76.484	59.4197
2360.000000	76.746	59.3303
2400.000000	76.937	59.0240
2430.000000	77.036	59.2811
2470.000000	77.243	60.0970
2500.000000	77.470	60.5829
2540.000000	77.801	60.5755
2580.000000	78.064	59.8549
2620.000000	78.215	59.0489
2650.000000	78.287	58.7451
2690.000000	78.401	58.8258
2720.000000	78.531	59.0552
2760.000000	78.762	59.2156
2800.000000	79.016	59.0047
2850.000000	79.319	58.2957
2900.000000	79.585	57.1699
2950.000000	79.779	55.7756
3000.000000	79.905	54.4866
3040.000000	79.991	53.6116
3070.000000	80.053	52.9525
3110.000000	80.112	51.9988
3150.000000	80.121	51.1293
3200.000000	80.089	50.5817
3250.000000	80.098	50.6282
3300.000000	80.177	50.7506
3350.000000	80.267	50.6651
3400.000000	80.321	50.7238
3450.000000	80.392	51.4351
3500.000000	80.597	52.7299
3550.000000	80.990	53.9550
3600.000000	81.533	54.4307
3650.000000	82.142	53.7029
3700.000000	82.718	51.5968
3750.000000	83.183	48.2964
3820.000000	83.583	42.5025
3870.000000	83.699	38.1194
3950.000000	83.651	31.3513
4000.000000	83.504	27.4284
4060.000000	83.233	23.0662
4120.000000	82.860	19.0974
4180.000000	82.379	15.6791
4250.000000	81.693	12.7366
4310.000000	81.031	11.3564
4370.000000	80.356	11.0883
4440.000000	79.634	11.9362
4500.000000	79.116	13.2427
4550.000000	78.752	14.4943
4620.000000	78.310	16.4320
4680.000000	77.983	18.3244
4750.000000	77.669	20.7673
4820.000000	77.428	23.4181
4870.000000	77.305	25.4222
4940.000000	77.211	28.2968
5000.000000	77.204	30.7275
5080.000000	77.294	33.7959
5150.000000	77.458	36.1572
5220.000000	77.668	38.0317
5300.000000	77.907	39.6180
5380.000000	78.123	40.9531
5450.000000	78.313	42.1503
5520.000000	78.534	43.3929
5600.000000	78.838	44.7499
5700.000000	79.296	46.1856
5800.000000	79.846	47.2555
5900.000000	80.512	47.7979
6000.000000	81.290	47.3822
6080.000000	81.959	46.0491
6150.000000	82.544	43.9918
6220.000000	83.096	41.0101
6300.000000	83.644	36.4150
6400.000000	84.121	28.9917
6500.000000	84.278	20.2529
6600.000000	84.061	11.2725
6700.000000	83.480	3.3057
6800.000000	82.605	-2.6710
6900.000000	81.555	-6.2526
7000.000000	80.464	-7.6440
7100.000000	79.447	-7.4224
7200.000000	78.560	-6.1687
7300.000000	77.801	-4.1935
7400.000000	77.162	-1.5349
7500.000000	76.665	1.7942
7620.000000	76.322	6.4165
7750.000000	76.335	11.5188
7880.000000	76.748	15.8159
8000.000000	77.411	18.3378
8120.000000	78.242	19.0109
8250.000000	79.242	17.3680
8380.000000	80.259	12.8457
8500.000000	81.099	5.5545
8620.000000	81.695	-5.1117
8750.000000	81.885	-20.1445
8850.000000	81.611	-33.2054
9000.000000	80.434	-52.4533
9120.000000	78.856	-65.1575
9250.000000	76.580	-73.8790
9380.000000	73.782	-74.6029
9500.000000	70.798	-65.3376
9620.000000	67.624	-45.4500
9750.000000	64.914	-15.4906
9880.000000	64.795	14.5404
10000.000000	66.511	34.2654
10150.000000	68.790	43.9390
10300.000000	70.406	41.6735
10440.000000	71.341	35.1541
10600.000000	71.921	26.9285
10750.000000	72.136	19.9883
10900.000000	72.145	14.1822
11060.000000	72.051	9.1332
11200.000000	71.971	5.2339
11380.000000	71.928	-0.2001
11500.000000	71.894	-4.7323
11720.000000	71.572	-15.3616
11800.000000	71.313	-19.7130
12060.000000	69.855	-33.9808
12200.000000	68.713	-41.9463
12410.000000	66.607	-58.0321
12500.000000	65.588	-68.6114
12650.000000	63.880	-94.9897
12800.000000	62.735	-134.5288
13150.000000	65.351	116.2121
13200.000000	65.969	103.7180
13400.000000	68.070	65.0219
13600.000000	69.447	39.0325
13800.000000	70.225	19.5377
14000.000000	70.578	3.0200
14300.000000	70.479	-20.2596
14500.000000	69.916	-35.4654
14750.000000	68.487	-51.5078
15000.000000	66.246	-59.1880
15250.000000	63.592	-54.5232
15500.000000	62.061	-40.5500
15750.000000	63.196	-28.4680
16000.000000	65.507	-26.9355
16250.000000	67.606	-36.7639
16500.000000	69.089	-55.5786
16750.000000	69.821	-80.2747
17000.000000	69.784	-107.4045
17250.000000	69.055	-133.9768
17500.000000	67.763	-158.0930
17750.000000	66.053	-178.8362
18000.000000	64.116	163.7263
18250.000000	62.242	148.0594
18500.000000	60.744	131.5110
18750.000000	59.691	111.8021
19000.000000	58.849	88.4409
19250.000000	57.971	63.0232
19500.000000	57.065	38.4009
19750.000000	56.361	17.9437
