* Measurement data measured by REW V5.20.13
* Source: EXCL: Headset (USB-C to 3.5mm Headphone Jack Adapter), MICROPHONE (Master Volume), 0, volume: 0.260
* Format: 256k Log Swept Sine, 1 sweep at -12.0 dBFS with no timing reference
* Dated: Dec 9, 2023 5:02:20 PM
* REW Settings:
*  C-weighting compensation: Off
*  Target level: 75.0 dB
* Note: 
* Measurement: HD58x Stock Pads
* Smoothing: 1/12 octave
* Frequency Step: 1/48 octave
* Start Frequency: 20.000 Hz
*
* Freq(Hz)	SPL(dB)	Phase(degrees)
20.000000	60.926	177.7748
20.299999	61.144	176.2878
20.600000	61.353	175.0943
20.900000	61.577	174.1243
21.200001	61.828	173.2041
21.400000	62.004	172.5147
21.799999	62.341	170.8260
22.000000	62.484	169.8414
22.400000	62.699	167.8018
22.700001	62.803	166.4858
23.000000	62.888	165.5359
23.299999	62.992	164.9814
23.600000	63.149	164.6930
24.000000	63.465	164.2856
24.299999	63.754	163.6534
24.700001	64.144	162.1641
25.000000	64.401	160.6527
25.400000	64.672	158.4273
25.799999	64.884	156.3431
26.200001	65.081	154.5842
26.500000	65.242	153.4344
26.900000	65.482	151.9608
27.200001	65.674	150.8091
27.600000	65.925	149.1806
28.000000	66.159	147.5137
28.500000	66.432	145.5191
29.000000	66.697	143.6609
29.500000	66.956	141.8635
30.000000	67.195	140.1185
30.400000	67.370	138.8340
30.700001	67.500	137.9685
31.100000	67.684	136.9242
31.500000	67.886	135.9011
32.000000	68.151	134.4514
32.500000	68.391	132.7216
33.000000	68.576	130.8679
33.500000	68.708	129.1460
34.000000	68.821	127.6913
34.500000	68.941	126.4397
35.000000	69.074	125.2397
35.500000	69.210	124.0075
36.000000	69.341	122.7563
36.500000	69.466	121.5261
37.000000	69.592	120.3286
37.500000	69.721	119.1496
38.200001	69.911	117.4866
38.700001	70.051	116.2525
39.500000	70.265	114.1638
40.000000	70.381	112.8459
40.599998	70.507	111.3654
41.200001	70.631	110.0369
41.799999	70.763	108.8096
42.500000	70.922	107.4266
43.099998	71.058	106.2800
43.700001	71.198	105.1685
44.400002	71.367	103.8374
45.000000	71.507	102.6008
45.500000	71.613	101.5137
46.200001	71.742	99.9857
46.799999	71.846	98.7202
47.500000	71.970	97.2697
48.200001	72.099	95.7845
48.700001	72.188	94.6968
49.400002	72.303	93.1821
50.000000	72.393	91.9373
50.799999	72.504	90.3902
51.500000	72.591	89.1499
52.200001	72.668	88.0226
53.000000	72.749	86.8386
53.799999	72.824	85.6548
54.500000	72.877	84.5408
55.200001	72.917	83.3259
56.000000	72.948	81.7968
57.000000	72.975	79.6295
58.000000	72.980	77.0859
59.000000	72.913	74.5499
60.000000	72.831	72.8697
60.799999	72.852	71.9717
61.500000	72.914	71.0767
62.200001	72.958	70.0661
63.000000	72.956	69.0978
64.000000	72.905	68.5323
65.000000	72.857	68.6818
66.000000	72.863	69.2545
67.000000	72.944	69.7914
68.000000	73.078	69.9474
69.000000	73.231	69.6403
70.000000	73.379	68.9855
71.000000	73.517	68.1685
72.000000	73.650	67.3169
73.000000	73.783	66.4451
74.000000	73.912	65.5241
75.000000	74.028	64.5462
76.199997	74.150	63.3026
77.500000	74.264	61.8978
78.800003	74.371	60.4682
80.000000	74.466	59.1380
81.199997	74.553	57.8212
82.500000	74.629	56.4329
83.800003	74.678	55.0851
85.000000	74.698	53.8781
86.199997	74.705	52.6860
87.500000	74.712	51.3206
88.500000	74.713	50.1847
90.000000	74.686	48.4780
91.199997	74.638	47.3482
92.500000	74.579	46.5294
93.800003	74.537	46.0305
95.000000	74.515	45.6972
96.199997	74.506	45.4032
97.500000	74.511	45.0893
98.800003	74.535	44.7665
100.000000	74.574	44.4502
101.500000	74.639	44.0132
103.000000	74.707	43.5149
104.400002	74.768	42.9604
106.000000	74.832	42.1889
107.500000	74.885	41.3879
109.000000	74.938	40.5927
110.599998	74.990	39.7692
112.000000	75.024	39.0367
113.800003	75.049	37.9935
115.000000	75.062	37.1751
117.199997	75.088	35.4100
118.000000	75.095	34.7621
120.599998	75.097	33.3584
122.000000	75.112	33.1200
124.099998	75.150	32.8724
125.000000	75.163	32.6829
126.500000	75.178	32.2011
128.000000	75.186	31.5534
131.500000	75.202	29.9058
132.000000	75.204	29.6849
134.000000	75.199	28.8256
136.000000	75.174	27.9626
138.000000	75.139	27.1274
140.000000	75.111	26.3612
143.000000	75.087	25.3435
145.000000	75.071	24.7263
147.500000	75.045	23.9915
150.000000	75.023	23.2964
152.500000	75.005	22.6555
155.000000	74.991	22.0868
157.500000	74.976	21.5721
160.000000	74.958	21.1016
162.500000	74.934	20.6913
165.000000	74.913	20.3164
167.500000	74.904	19.8917
170.000000	74.904	19.3907
172.500000	74.907	18.8618
175.000000	74.907	18.3307
177.500000	74.900	17.7972
180.000000	74.888	17.2797
182.500000	74.876	16.7954
185.000000	74.863	16.3448
187.500000	74.850	15.9133
190.000000	74.834	15.4819
192.500000	74.813	15.0479
195.000000	74.789	14.6219
197.500000	74.761	14.2173
200.000000	74.731	13.8455
203.000000	74.693	13.4484
206.000000	74.656	13.1056
209.000000	74.623	12.8181
212.000000	74.596	12.5728
214.000000	74.581	12.4226
218.000000	74.557	12.1322
220.000000	74.548	11.9892
224.000000	74.529	11.7115
227.000000	74.516	11.5073
230.000000	74.505	11.3011
233.000000	74.498	11.0870
236.000000	74.492	10.8632
240.000000	74.487	10.5585
243.000000	74.484	10.3256
247.000000	74.479	10.0045
250.000000	74.473	9.7572
254.000000	74.462	9.4241
258.000000	74.448	9.1078
262.000000	74.433	8.8302
265.000000	74.422	8.6484
269.000000	74.410	8.4278
272.000000	74.401	8.2628
276.000000	74.390	8.0212
280.000000	74.378	7.7489
285.000000	74.363	7.3947
290.000000	74.352	7.0573
295.000000	74.342	6.7339
300.000000	74.323	6.4223
304.000000	74.297	6.1987
307.000000	74.275	6.0482
311.000000	74.245	5.8599
315.000000	74.215	5.6843
320.000000	74.171	5.5135
325.000000	74.127	5.4465
330.000000	74.090	5.4744
335.000000	74.068	5.5312
340.000000	74.057	5.5723
345.000000	74.051	5.5912
350.000000	74.046	5.5815
355.000000	74.043	5.5435
360.000000	74.042	5.4968
365.000000	74.043	5.4532
370.000000	74.043	5.4099
375.000000	74.042	5.3585
382.000000	74.038	5.2730
387.000000	74.033	5.2123
395.000000	74.022	5.1318
400.000000	74.013	5.0967
406.000000	74.001	5.0682
412.000000	73.991	5.0507
418.000000	73.985	5.0442
425.000000	73.981	5.0526
431.000000	73.978	5.0776
437.000000	73.976	5.1217
444.000000	73.978	5.1860
450.000000	73.981	5.2391
455.000000	73.985	5.2808
462.000000	73.991	5.3409
468.000000	73.997	5.3904
475.000000	74.006	5.4339
482.000000	74.014	5.4606
487.000000	74.021	5.4752
494.000000	74.029	5.4977
500.000000	74.035	5.5226
508.000000	74.042	5.5667
515.000000	74.047	5.6169
522.000000	74.052	5.6808
530.000000	74.059	5.7734
538.000000	74.067	5.8911
545.000000	74.075	6.0195
552.000000	74.087	6.1687
560.000000	74.109	6.3454
570.000000	74.146	6.5251
580.000000	74.185	6.6613
590.000000	74.223	6.8048
600.000000	74.266	6.9257
608.000000	74.305	6.9716
615.000000	74.338	6.9840
622.000000	74.367	6.9907
630.000000	74.398	7.0038
640.000000	74.436	7.0211
650.000000	74.472	7.0358
660.000000	74.507	7.0712
670.000000	74.546	7.1295
680.000000	74.591	7.1698
690.000000	74.639	7.1578
700.000000	74.684	7.1063
710.000000	74.726	7.0401
720.000000	74.767	6.9539
730.000000	74.803	6.8455
740.000000	74.834	6.7430
750.000000	74.863	6.6683
762.000000	74.904	6.5938
775.000000	74.958	6.4492
788.000000	75.013	6.1284
800.000000	75.043	5.6492
812.000000	75.033	5.0598
825.000000	74.956	4.4735
838.000000	74.808	4.2963
850.000000	74.651	4.8024
862.000000	74.546	5.9232
875.000000	74.540	7.4151
885.000000	74.608	8.4587
900.000000	74.778	9.5787
912.000000	74.931	10.0662
925.000000	75.084	10.2875
938.000000	75.217	10.3214
950.000000	75.323	10.2628
962.000000	75.413	10.1579
975.000000	75.496	10.0277
988.000000	75.565	9.9160
1000.000000	75.621	9.8677
1015.000000	75.692	9.9127
1030.000000	75.778	10.0085
1044.000000	75.873	10.0364
1060.000000	75.985	9.9315
1075.000000	76.079	9.7325
1090.000000	76.160	9.5120
1106.000000	76.237	9.3126
1120.000000	76.305	9.1785
1138.000000	76.400	9.0280
1150.000000	76.471	8.8986
1172.000000	76.607	8.4999
1180.000000	76.655	8.2903
1206.000000	76.779	7.4211
1220.000000	76.821	6.9141
1241.000000	76.852	6.2245
1250.000000	76.856	5.9825
1265.000000	76.859	5.6621
1280.000000	76.864	5.4268
1315.000000	76.897	5.0477
1320.000000	76.904	4.9949
1340.000000	76.931	4.7681
1360.000000	76.959	4.5494
1380.000000	76.995	4.2784
1400.000000	77.019	3.8721
1430.000000	77.004	3.3016
1450.000000	76.980	3.0733
1475.000000	76.944	2.9195
1500.000000	76.910	2.9146
1525.000000	76.877	2.9691
1550.000000	76.838	3.1622
1575.000000	76.813	3.5673
1600.000000	76.824	4.0149
1625.000000	76.843	4.3253
1650.000000	76.845	4.6483
1675.000000	76.850	5.1339
1700.000000	76.882	5.6937
1725.000000	76.938	6.1571
1750.000000	76.993	6.4761
1775.000000	77.029	6.7639
1800.000000	77.053	7.1921
1825.000000	77.095	7.7587
1850.000000	77.160	8.2950
1875.000000	77.229	8.7257
1900.000000	77.288	9.1353
1925.000000	77.344	9.6469
1950.000000	77.417	10.2510
1975.000000	77.511	10.8159
2000.000000	77.611	11.2651
2030.000000	77.721	11.7455
2060.000000	77.827	12.2900
2090.000000	77.949	12.8792
2120.000000	78.082	13.4113
2140.000000	78.171	13.7279
2180.000000	78.340	14.3487
2200.000000	78.424	14.6958
2240.000000	78.608	15.5306
2270.000000	78.775	16.1654
2300.000000	78.955	16.6761
2330.000000	79.133	17.1091
2360.000000	79.309	17.5509
2400.000000	79.560	18.1903
2430.000000	79.763	18.6714
2470.000000	80.058	19.2923
2500.000000	80.303	19.7027
2540.000000	80.653	20.0787
2580.000000	81.019	20.2711
2620.000000	81.406	20.3230
2650.000000	81.713	20.2192
2690.000000	82.135	19.8000
2720.000000	82.452	19.2759
2760.000000	82.871	18.3251
2800.000000	83.285	17.0934
2850.000000	83.785	15.0945
2900.000000	84.238	12.5749
2950.000000	84.626	9.6626
3000.000000	84.946	6.5063
3040.000000	85.158	3.8858
3070.000000	85.295	1.8701
3110.000000	85.445	-0.8918
3150.000000	85.555	-3.7223
3200.000000	85.632	-7.2953
3250.000000	85.643	-10.8250
3300.000000	85.593	-14.2213
3350.000000	85.491	-17.4369
3400.000000	85.344	-20.4683
3450.000000	85.155	-23.2917
3500.000000	84.928	-25.8759
3550.000000	84.667	-28.1991
3600.000000	84.378	-30.2266
3650.000000	84.072	-31.9463
3700.000000	83.760	-33.4054
3750.000000	83.443	-34.6557
3820.000000	82.988	-36.0925
3870.000000	82.654	-36.9007
3950.000000	82.097	-37.8285
4000.000000	81.728	-38.1368
4060.000000	81.261	-38.1525
4120.000000	80.770	-37.6871
4180.000000	80.261	-36.6203
4250.000000	79.668	-34.4734
4310.000000	79.187	-31.7507
4370.000000	78.773	-28.1764
4440.000000	78.440	-23.0055
4500.000000	78.351	-17.8393
4550.000000	78.470	-13.2291
4620.000000	78.975	-6.9565
4680.000000	79.681	-2.4503
4750.000000	80.692	1.0645
4820.000000	81.741	2.3221
4870.000000	82.437	1.8624
4940.000000	83.273	-0.3025
5000.000000	83.848	-3.0636
5080.000000	84.444	-7.3094
5150.000000	84.858	-11.2008
5220.000000	85.211	-15.2059
5300.000000	85.567	-20.1125
5380.000000	85.862	-25.6876
5450.000000	86.034	-31.3077
5520.000000	86.082	-37.6404
5600.000000	85.926	-45.4866
5700.000000	85.349	-55.2296
5800.000000	84.352	-63.4514
5900.000000	83.032	-69.0747
6000.000000	81.538	-71.8690
6080.000000	80.320	-72.3391
6150.000000	79.285	-71.7223
6220.000000	78.303	-70.3343
6300.000000	77.265	-67.9980
6400.000000	76.109	-64.2480
6500.000000	75.118	-59.9078
6600.000000	74.275	-55.2377
6700.000000	73.550	-50.3392
6800.000000	72.913	-45.1486
6900.000000	72.355	-39.5031
7000.000000	71.905	-33.2552
7100.000000	71.632	-26.4280
7200.000000	71.616	-19.3695
7300.000000	71.890	-12.7167
7400.000000	72.408	-7.1432
7500.000000	73.067	-3.1442
7620.000000	73.892	-0.7439
7750.000000	74.662	-0.9986
7880.000000	75.173	-3.6322
8000.000000	75.353	-7.3572
8120.000000	75.233	-11.4276
8250.000000	74.779	-15.2271
8380.000000	74.041	-17.4672
8500.000000	73.195	-17.5939
8620.000000	72.319	-15.7998
8750.000000	71.516	-12.3864
8850.000000	71.083	-9.6207
9000.000000	70.652	-6.8107
9120.000000	70.266	-5.9639
9250.000000	69.575	-5.1306
9380.000000	68.532	-2.2115
9500.000000	67.340	4.0188
9620.000000	66.191	14.3604
9750.000000	65.563	29.3637
9880.000000	66.114	45.4558
10000.000000	67.462	58.2086
10150.000000	69.505	68.8242
10300.000000	71.454	73.4567
10440.000000	73.043	73.4630
10600.000000	74.531	69.6011
10750.000000	75.572	63.1297
10900.000000	76.241	54.6486
11060.000000	76.503	44.2449
11200.000000	76.305	35.0322
11380.000000	75.428	25.3741
11500.000000	74.488	21.7462
11720.000000	72.341	22.7112
11800.000000	71.567	25.3145
12060.000000	70.000	38.5311
12200.000000	70.124	46.2260
12410.000000	71.373	54.5858
12500.000000	72.077	56.1393
12650.000000	73.188	55.3970
12800.000000	74.023	50.7643
13150.000000	74.478	32.7036
13200.000000	74.393	30.1407
13400.000000	73.823	21.1405
13600.000000	73.074	14.0397
13800.000000	72.335	7.9114
14000.000000	71.708	1.5325
14300.000000	71.045	-11.1078
14500.000000	70.809	-23.5042
14750.000000	70.723	-46.4265
15000.000000	70.688	-79.6068
15250.000000	70.545	-120.9696
15500.000000	70.423	-164.5812
15750.000000	70.486	154.7831
16000.000000	70.554	119.4454
16250.000000	70.376	90.2737
16500.000000	69.995	66.9474
16750.000000	69.610	47.1122
17000.000000	69.219	27.7245
17250.000000	68.562	7.7397
17500.000000	67.426	-11.2922
17750.000000	65.808	-27.0906
18000.000000	63.857	-37.4380
18250.000000	62.037	-40.2298
18500.000000	61.570	-37.2355
18750.000000	62.973	-38.0547
19000.000000	64.834	-52.5347
19250.000000	66.197	-80.9193
19500.000000	66.922	-116.1498
19750.000000	67.165	-148.8096
