* Measurement data measured by REW V5.31.1
* Source: Frequency response averaged data
* Format: Averaged data produced from the rms magnitudes of R Senn 650 Soulwit pads, R Senn 650 Soulwit pads
* Dated: Dec 20, 2024 9:51:23 AM
* REW Settings:
*  C-weighting compensation: Off
*  Target level: 75.0 dB
* Note: Averaged data produced from the rms magnitudes of R Senn 650 Soulwit pads, R Senn 650 Soulwit pads
* Measurement: RMS Average 1
* Smoothing: 1/12 octave
* Frequency Step: 1/48 octave
* Start Frequency: 20.000 Hz
*
* Freq(Hz)	SPL(dB)
20.000000	64.847
20.299999	64.970
20.600000	65.071
20.900000	65.160
21.200001	65.247
21.400000	65.306
21.799999	65.431
22.000000	65.498
22.400000	65.644
22.700001	65.761
23.000000	65.886
23.299999	66.015
23.600000	66.147
24.000000	66.324
24.299999	66.455
24.700001	66.626
25.000000	66.753
25.400000	66.921
25.799999	67.093
26.200001	67.268
26.500000	67.402
26.900000	67.581
27.200001	67.716
27.600000	67.893
28.000000	68.065
28.500000	68.273
29.000000	68.472
29.500000	68.659
30.000000	68.835
30.400000	68.967
30.700001	69.061
31.100000	69.180
31.500000	69.292
32.000000	69.424
32.500000	69.549
33.000000	69.668
33.500000	69.784
34.000000	69.899
34.500000	70.012
35.000000	70.123
35.500000	70.228
36.000000	70.328
36.500000	70.423
37.000000	70.514
37.500000	70.602
38.200001	70.723
38.700001	70.809
39.500000	70.948
40.000000	71.037
40.599998	71.146
41.200001	71.257
41.799999	71.368
42.500000	71.494
43.099998	71.595
43.700001	71.686
44.400002	71.780
45.000000	71.851
45.500000	71.906
46.200001	71.978
46.799999	72.037
47.500000	72.108
48.200001	72.182
48.700001	72.239
49.400002	72.326
50.000000	72.407
50.799999	72.520
51.500000	72.619
52.200001	72.716
53.000000	72.820
53.799999	72.913
54.500000	72.986
55.200001	73.049
56.000000	73.112
57.000000	73.178
58.000000	73.229
59.000000	73.270
60.000000	73.303
60.799999	73.328
61.500000	73.352
62.200001	73.380
63.000000	73.417
64.000000	73.471
65.000000	73.529
66.000000	73.587
67.000000	73.642
68.000000	73.695
69.000000	73.745
70.000000	73.793
71.000000	73.840
72.000000	73.885
73.000000	73.928
74.000000	73.969
75.000000	74.009
76.199997	74.055
77.500000	74.101
78.800003	74.144
80.000000	74.181
81.199997	74.216
82.500000	74.252
83.800003	74.288
85.000000	74.322
86.199997	74.357
87.500000	74.395
88.500000	74.423
90.000000	74.463
91.199997	74.490
92.500000	74.517
93.800003	74.540
95.000000	74.560
96.199997	74.580
97.500000	74.601
98.800003	74.623
100.000000	74.645
101.500000	74.671
103.000000	74.696
104.400002	74.716
106.000000	74.734
107.500000	74.747
109.000000	74.756
110.599998	74.761
112.000000	74.765
113.800003	74.770
115.000000	74.774
117.199997	74.783
118.000000	74.786
120.599998	74.793
122.000000	74.794
124.099998	74.793
125.000000	74.791
126.500000	74.787
128.000000	74.782
131.500000	74.771
132.000000	74.770
134.000000	74.765
136.000000	74.760
138.000000	74.757
140.000000	74.755
143.000000	74.753
145.000000	74.753
147.500000	74.753
150.000000	74.753
152.500000	74.751
155.000000	74.747
157.500000	74.741
160.000000	74.733
162.500000	74.722
165.000000	74.709
167.500000	74.693
170.000000	74.676
172.500000	74.657
175.000000	74.637
177.500000	74.616
180.000000	74.595
182.500000	74.574
185.000000	74.553
187.500000	74.533
190.000000	74.513
192.500000	74.494
195.000000	74.474
197.500000	74.454
200.000000	74.433
203.000000	74.406
206.000000	74.378
209.000000	74.348
212.000000	74.317
214.000000	74.295
218.000000	74.251
220.000000	74.228
224.000000	74.180
227.000000	74.143
230.000000	74.105
233.000000	74.067
236.000000	74.029
240.000000	73.980
243.000000	73.945
247.000000	73.905
250.000000	73.878
254.000000	73.849
258.000000	73.824
262.000000	73.805
265.000000	73.792
269.000000	73.776
272.000000	73.765
276.000000	73.751
280.000000	73.736
285.000000	73.718
290.000000	73.700
295.000000	73.683
300.000000	73.666
304.000000	73.653
307.000000	73.643
311.000000	73.631
315.000000	73.618
320.000000	73.603
325.000000	73.589
330.000000	73.575
335.000000	73.563
340.000000	73.552
345.000000	73.541
350.000000	73.531
355.000000	73.519
360.000000	73.507
365.000000	73.494
370.000000	73.481
375.000000	73.467
382.000000	73.448
387.000000	73.436
395.000000	73.420
400.000000	73.413
406.000000	73.406
412.000000	73.402
418.000000	73.401
425.000000	73.402
431.000000	73.404
437.000000	73.407
444.000000	73.412
450.000000	73.416
455.000000	73.420
462.000000	73.425
468.000000	73.430
475.000000	73.436
482.000000	73.443
487.000000	73.449
494.000000	73.459
500.000000	73.471
508.000000	73.489
515.000000	73.509
522.000000	73.532
530.000000	73.561
538.000000	73.593
545.000000	73.623
552.000000	73.654
560.000000	73.690
570.000000	73.736
580.000000	73.782
590.000000	73.826
600.000000	73.869
608.000000	73.901
615.000000	73.928
622.000000	73.954
630.000000	73.983
640.000000	74.017
650.000000	74.051
660.000000	74.084
670.000000	74.117
680.000000	74.152
690.000000	74.187
700.000000	74.224
710.000000	74.262
720.000000	74.301
730.000000	74.341
740.000000	74.381
750.000000	74.422
762.000000	74.472
775.000000	74.528
788.000000	74.585
800.000000	74.639
812.000000	74.693
825.000000	74.750
838.000000	74.805
850.000000	74.850
862.000000	74.888
875.000000	74.916
885.000000	74.927
900.000000	74.921
912.000000	74.899
925.000000	74.867
938.000000	74.836
950.000000	74.821
962.000000	74.827
975.000000	74.860
988.000000	74.919
1000.000000	74.989
1015.000000	75.089
1030.000000	75.190
1044.000000	75.280
1060.000000	75.371
1075.000000	75.446
1090.000000	75.510
1106.000000	75.571
1120.000000	75.619
1138.000000	75.676
1150.000000	75.711
1172.000000	75.769
1180.000000	75.788
1206.000000	75.839
1220.000000	75.861
1241.000000	75.889
1250.000000	75.899
1265.000000	75.915
1280.000000	75.929
1315.000000	75.953
1320.000000	75.955
1340.000000	75.957
1360.000000	75.951
1380.000000	75.938
1400.000000	75.924
1430.000000	75.904
1450.000000	75.894
1475.000000	75.886
1500.000000	75.880
1525.000000	75.875
1550.000000	75.871
1575.000000	75.870
1600.000000	75.870
1625.000000	75.869
1650.000000	75.866
1675.000000	75.863
1700.000000	75.862
1725.000000	75.870
1750.000000	75.887
1775.000000	75.912
1800.000000	75.943
1825.000000	75.977
1850.000000	76.017
1875.000000	76.062
1900.000000	76.114
1925.000000	76.171
1950.000000	76.233
1975.000000	76.300
2000.000000	76.375
2030.000000	76.477
2060.000000	76.596
2090.000000	76.728
2120.000000	76.874
2140.000000	76.978
2180.000000	77.209
2200.000000	77.338
2240.000000	77.628
2270.000000	77.874
2300.000000	78.142
2330.000000	78.434
2360.000000	78.746
2400.000000	79.190
2430.000000	79.538
2470.000000	80.015
2500.000000	80.374
2540.000000	80.848
2580.000000	81.310
2620.000000	81.757
2650.000000	82.082
2690.000000	82.503
2720.000000	82.810
2760.000000	83.205
2800.000000	83.583
2850.000000	84.027
2900.000000	84.436
2950.000000	84.806
3000.000000	85.134
3040.000000	85.362
3070.000000	85.513
3110.000000	85.686
3150.000000	85.826
3200.000000	85.954
3250.000000	86.030
3300.000000	86.053
3350.000000	86.026
3400.000000	85.949
3450.000000	85.824
3500.000000	85.652
3550.000000	85.438
3600.000000	85.185
3650.000000	84.898
3700.000000	84.583
3750.000000	84.247
3820.000000	83.754
3870.000000	83.393
3950.000000	82.819
4000.000000	82.471
4060.000000	82.074
4120.000000	81.708
4180.000000	81.383
4250.000000	81.064
4310.000000	80.849
4370.000000	80.688
4440.000000	80.562
4500.000000	80.499
4550.000000	80.470
4620.000000	80.454
4680.000000	80.452
4750.000000	80.455
4820.000000	80.457
4870.000000	80.456
4940.000000	80.449
5000.000000	80.438
5080.000000	80.414
5150.000000	80.383
5220.000000	80.339
5300.000000	80.267
5380.000000	80.166
5450.000000	80.048
5520.000000	79.899
5600.000000	79.691
5700.000000	79.378
5800.000000	79.015
5900.000000	78.610
6000.000000	78.164
6080.000000	77.774
6150.000000	77.406
6220.000000	77.011
6300.000000	76.526
6400.000000	75.874
6500.000000	75.183
6600.000000	74.468
6700.000000	73.751
6800.000000	73.055
6900.000000	72.405
7000.000000	71.826
7100.000000	71.337
7200.000000	70.957
7300.000000	70.693
7400.000000	70.547
7500.000000	70.510
7620.000000	70.586
7750.000000	70.777
7880.000000	71.032
8000.000000	71.284
8120.000000	71.520
8250.000000	71.729
8380.000000	71.870
8500.000000	71.925
8620.000000	71.903
8750.000000	71.787
8850.000000	71.630
9000.000000	71.280
9120.000000	70.898
9250.000000	70.382
9380.000000	69.763
9500.000000	69.114
9620.000000	68.410
9750.000000	67.624
9880.000000	66.875
10000.000000	66.288
10150.000000	65.797
10300.000000	65.651
10440.000000	65.806
10600.000000	66.209
10750.000000	66.664
10900.000000	67.092
11060.000000	67.465
11200.000000	67.727
11380.000000	68.052
11500.000000	68.338
11720.000000	69.177
11800.000000	69.599
12060.000000	71.278
12200.000000	72.248
12410.000000	73.603
12500.000000	74.113
12650.000000	74.838
12800.000000	75.391
13150.000000	75.963
13200.000000	75.964
13400.000000	75.780
13600.000000	75.334
13800.000000	74.687
14000.000000	73.916
14300.000000	72.716
14500.000000	72.019
14750.000000	71.397
15000.000000	71.108
15250.000000	71.124
15500.000000	71.357
15750.000000	71.710
16000.000000	72.097
16250.000000	72.440
16500.000000	72.665
16750.000000	72.709
17000.000000	72.530
17250.000000	72.114
17500.000000	71.479
17750.000000	70.668
18000.000000	69.749
18250.000000	68.814
18500.000000	67.968
18750.000000	67.308
19000.000000	66.884
19250.000000	66.677
19500.000000	66.621
19750.000000	66.635
20000.000000	66.658
