* Measurement data measured by REW V5.20.13
* Source: EXCL: Headset (USB-C to 3.5mm Headphone Jack Adapter), MICROPHONE (Master Volume), 0, volume: 0.260. Timing signal peak level -36.3 dBFS, measurement signal peak level -29.1 dBFS
* Format: 256k Log Swept Sine, 1 sweep at -12.0 dBFS using an acoustic timing reference
* Dated: Apr 15, 2024 3:52:42 PM
* REW Settings:
*  C-weighting compensation: Off
*  Target level: 75.0 dB
* Note: Delay -0.0314 ms (-11 mm, -0.42 in) using estimated IR delay relative to Acoustic reference played from SPEAKER L with no timing offset Clock adjustment: -38.1 ppm
* Measurement: HD650 Geekria V L
* Smoothing: 1/12 octave
* Frequency Step: 1/48 octave
* Start Frequency: 20.000 Hz
*
* Freq(Hz)	SPL(dB)	Phase(degrees)
20.000000	60.741	-14.8323
20.299999	60.989	-16.0236
20.600000	61.228	-17.2299
20.900000	61.458	-18.4294
21.200001	61.682	-19.6023
21.400000	61.829	-20.3666
21.799999	62.120	-21.8641
22.000000	62.264	-22.6054
22.400000	62.548	-24.0913
22.700001	62.756	-25.2125
23.000000	62.957	-26.3312
23.299999	63.151	-27.4326
23.600000	63.340	-28.5080
24.000000	63.589	-29.9012
24.299999	63.774	-30.9290
24.700001	64.016	-32.3001
25.000000	64.192	-33.3356
25.400000	64.415	-34.7125
25.799999	64.627	-36.0481
26.200001	64.830	-37.3133
26.500000	64.983	-38.2202
26.900000	65.187	-39.4026
27.200001	65.340	-40.2951
27.600000	65.539	-41.5114
28.000000	65.727	-42.7443
28.500000	65.945	-44.2495
29.000000	66.153	-45.6662
29.500000	66.360	-47.0197
30.000000	66.568	-48.3784
30.400000	66.727	-49.4893
30.700001	66.841	-50.3260
31.100000	66.985	-51.4182
31.500000	67.123	-52.4619
32.000000	67.295	-53.6959
32.500000	67.471	-54.8877
33.000000	67.651	-56.0804
33.500000	67.829	-57.2871
34.000000	68.004	-58.4986
34.500000	68.177	-59.7093
35.000000	68.346	-60.9274
35.500000	68.509	-62.1606
36.000000	68.662	-63.3963
36.500000	68.803	-64.6037
37.000000	68.938	-65.7563
37.500000	69.070	-66.8554
38.200001	69.254	-68.3517
38.700001	69.382	-69.4144
39.500000	69.576	-71.0853
40.000000	69.694	-72.0976
40.599998	69.833	-73.2915
41.200001	69.970	-74.4769
41.799999	70.101	-75.6411
42.500000	70.252	-76.9487
43.099998	70.381	-78.0336
43.700001	70.512	-79.1096
44.400002	70.662	-80.3819
45.000000	70.784	-81.5070
45.500000	70.874	-82.4605
46.200001	70.979	-83.7441
46.799999	71.059	-84.7215
47.500000	71.162	-85.7547
48.200001	71.277	-86.8406
48.700001	71.354	-87.6982
49.400002	71.441	-88.9400
50.000000	71.503	-89.9539
50.799999	71.581	-91.2199
51.500000	71.647	-92.2828
52.200001	71.711	-93.2776
53.000000	71.789	-94.3036
53.799999	71.880	-95.2662
54.500000	71.967	-96.0988
55.200001	72.055	-96.9321
56.000000	72.156	-97.9029
57.000000	72.271	-99.1509
58.000000	72.372	-100.3767
59.000000	72.469	-101.5476
60.000000	72.573	-102.7327
60.799999	72.658	-103.7343
61.500000	72.730	-104.6362
62.200001	72.800	-105.5456
63.000000	72.879	-106.5954
64.000000	72.971	-107.9230
65.000000	73.052	-109.2401
66.000000	73.119	-110.5363
67.000000	73.171	-111.8158
68.000000	73.206	-113.0657
69.000000	73.224	-114.2703
70.000000	73.227	-115.4156
71.000000	73.216	-116.4777
72.000000	73.193	-117.4183
73.000000	73.159	-118.1817
74.000000	73.126	-118.7191
75.000000	73.107	-119.0435
76.199997	73.119	-119.2738
77.500000	73.173	-119.5227
78.800003	73.255	-119.8948
80.000000	73.344	-120.3560
81.199997	73.440	-120.8976
82.500000	73.552	-121.5401
83.800003	73.669	-122.2343
85.000000	73.779	-122.9446
86.199997	73.880	-123.7341
87.500000	73.977	-124.6584
88.500000	74.042	-125.4104
90.000000	74.127	-126.5962
91.199997	74.183	-127.5638
92.500000	74.237	-128.6062
93.800003	74.282	-129.6422
95.000000	74.316	-130.5825
96.199997	74.340	-131.4904
97.500000	74.358	-132.4178
98.800003	74.371	-133.2704
100.000000	74.382	-133.9972
101.500000	74.395	-134.8475
103.000000	74.406	-135.6541
104.400002	74.416	-136.3873
106.000000	74.428	-137.2279
107.500000	74.441	-138.0262
109.000000	74.452	-138.8105
110.599998	74.456	-139.5951
112.000000	74.449	-140.2183
113.800003	74.428	-140.9464
115.000000	74.414	-141.4248
117.199997	74.401	-142.3712
118.000000	74.402	-142.7297
120.599998	74.426	-143.7263
122.000000	74.457	-144.1285
124.099998	74.506	-144.7326
125.000000	74.520	-145.0218
126.500000	74.531	-145.5528
128.000000	74.530	-146.1392
131.500000	74.503	-147.5887
132.000000	74.496	-147.7867
134.000000	74.460	-148.5128
136.000000	74.412	-149.0897
138.000000	74.365	-149.4837
140.000000	74.335	-149.7323
143.000000	74.331	-150.0401
145.000000	74.342	-150.3132
147.500000	74.358	-150.7662
150.000000	74.370	-151.2699
152.500000	74.381	-151.7587
155.000000	74.397	-152.2336
157.500000	74.420	-152.7174
160.000000	74.446	-153.2104
162.500000	74.463	-153.7002
165.000000	74.466	-154.1997
167.500000	74.458	-154.7319
170.000000	74.447	-155.2956
172.500000	74.438	-155.8624
175.000000	74.427	-156.3924
177.500000	74.416	-156.8665
180.000000	74.404	-157.2943
182.500000	74.390	-157.6949
185.000000	74.377	-158.0839
187.500000	74.367	-158.4670
190.000000	74.359	-158.8423
192.500000	74.349	-159.2110
195.000000	74.335	-159.5845
197.500000	74.319	-159.9642
200.000000	74.300	-160.3336
203.000000	74.274	-160.7446
206.000000	74.248	-161.1225
209.000000	74.221	-161.4744
212.000000	74.194	-161.8000
214.000000	74.175	-162.0014
218.000000	74.140	-162.3629
220.000000	74.122	-162.5206
224.000000	74.086	-162.7955
227.000000	74.061	-162.9824
230.000000	74.036	-163.1636
233.000000	74.011	-163.3384
236.000000	73.985	-163.5063
240.000000	73.950	-163.7301
243.000000	73.927	-163.9027
247.000000	73.901	-164.1137
250.000000	73.882	-164.2414
254.000000	73.855	-164.3792
258.000000	73.829	-164.4956
262.000000	73.805	-164.5966
265.000000	73.788	-164.6618
269.000000	73.767	-164.7244
272.000000	73.752	-164.7525
276.000000	73.735	-164.7832
280.000000	73.720	-164.8259
285.000000	73.706	-164.9034
290.000000	73.694	-164.9896
295.000000	73.684	-165.0591
300.000000	73.677	-165.1031
304.000000	73.672	-165.1385
307.000000	73.668	-165.1761
311.000000	73.661	-165.2431
315.000000	73.655	-165.3198
320.000000	73.647	-165.4121
325.000000	73.638	-165.4880
330.000000	73.628	-165.5420
335.000000	73.617	-165.5775
340.000000	73.606	-165.5969
345.000000	73.593	-165.6017
350.000000	73.580	-165.6007
355.000000	73.569	-165.5962
360.000000	73.560	-165.5814
365.000000	73.553	-165.5581
370.000000	73.550	-165.5319
375.000000	73.547	-165.5059
382.000000	73.544	-165.4770
387.000000	73.541	-165.4667
395.000000	73.535	-165.4576
400.000000	73.531	-165.4422
406.000000	73.528	-165.4145
412.000000	73.525	-165.3837
418.000000	73.522	-165.3513
425.000000	73.517	-165.3160
431.000000	73.511	-165.2900
437.000000	73.503	-165.2586
444.000000	73.492	-165.1986
450.000000	73.481	-165.1219
455.000000	73.472	-165.0401
462.000000	73.462	-164.8986
468.000000	73.456	-164.7613
475.000000	73.451	-164.5958
482.000000	73.449	-164.4248
487.000000	73.450	-164.2974
494.000000	73.455	-164.1157
500.000000	73.461	-163.9648
508.000000	73.471	-163.7798
515.000000	73.480	-163.6337
522.000000	73.487	-163.4980
530.000000	73.493	-163.3424
538.000000	73.498	-163.1640
545.000000	73.504	-162.9781
552.000000	73.515	-162.7714
560.000000	73.532	-162.5314
570.000000	73.559	-162.2512
580.000000	73.593	-161.9982
590.000000	73.630	-161.7886
600.000000	73.667	-161.6307
608.000000	73.694	-161.5311
615.000000	73.717	-161.4560
622.000000	73.737	-161.3869
630.000000	73.758	-161.3056
640.000000	73.781	-161.1802
650.000000	73.805	-161.0246
660.000000	73.829	-160.8631
670.000000	73.854	-160.7112
680.000000	73.878	-160.5381
690.000000	73.907	-160.3168
700.000000	73.947	-160.0859
710.000000	73.997	-159.9100
720.000000	74.048	-159.8130
730.000000	74.096	-159.7698
740.000000	74.140	-159.7466
750.000000	74.182	-159.7315
762.000000	74.233	-159.7416
775.000000	74.287	-159.8345
788.000000	74.335	-160.0490
800.000000	74.365	-160.3594
812.000000	74.366	-160.7411
825.000000	74.324	-161.1131
838.000000	74.237	-161.2376
850.000000	74.144	-160.9835
862.000000	74.074	-160.3838
875.000000	74.050	-159.5327
885.000000	74.068	-158.8842
900.000000	74.133	-158.0670
912.000000	74.198	-157.5661
925.000000	74.272	-157.1396
938.000000	74.346	-156.7941
950.000000	74.412	-156.5296
962.000000	74.476	-156.2970
975.000000	74.545	-156.0565
988.000000	74.615	-155.8278
1000.000000	74.682	-155.6313
1015.000000	74.770	-155.4002
1030.000000	74.864	-155.1997
1044.000000	74.957	-155.0680
1060.000000	75.066	-154.9961
1075.000000	75.168	-155.0037
1090.000000	75.268	-155.0913
1106.000000	75.368	-155.2731
1120.000000	75.447	-155.4820
1138.000000	75.537	-155.7834
1150.000000	75.590	-155.9982
1172.000000	75.674	-156.3990
1180.000000	75.701	-156.5388
1206.000000	75.782	-156.9445
1220.000000	75.827	-157.1371
1241.000000	75.905	-157.4739
1250.000000	75.939	-157.6689
1265.000000	75.989	-158.0715
1280.000000	76.023	-158.5263
1315.000000	76.050	-159.4989
1320.000000	76.051	-159.6268
1340.000000	76.040	-160.1204
1360.000000	76.007	-160.5180
1380.000000	75.962	-160.7195
1400.000000	75.925	-160.7303
1430.000000	75.900	-160.5588
1450.000000	75.906	-160.3994
1475.000000	75.936	-160.2549
1500.000000	75.973	-160.1963
1525.000000	76.013	-160.1338
1550.000000	76.070	-160.1076
1575.000000	76.130	-160.2178
1600.000000	76.183	-160.3612
1625.000000	76.244	-160.5027
1650.000000	76.315	-160.7289
1675.000000	76.395	-161.0438
1700.000000	76.489	-161.5443
1725.000000	76.575	-162.3363
1750.000000	76.633	-163.3884
1775.000000	76.648	-164.6263
1800.000000	76.613	-165.9349
1825.000000	76.533	-167.1879
1850.000000	76.418	-168.3547
1875.000000	76.270	-169.4359
1900.000000	76.093	-170.4140
1925.000000	75.887	-171.3032
1950.000000	75.646	-172.1144
1975.000000	75.354	-172.7764
2000.000000	74.998	-173.1080
2030.000000	74.497	-172.7339
2060.000000	73.966	-171.2760
2090.000000	73.477	-168.8104
2120.000000	73.075	-165.5715
2140.000000	72.868	-163.0480
2180.000000	72.653	-157.3319
2200.000000	72.669	-154.3639
2240.000000	72.921	-148.9054
2270.000000	73.237	-145.5401
2300.000000	73.601	-142.8456
2330.000000	73.983	-140.7386
2360.000000	74.365	-139.1396
2400.000000	74.844	-137.6547
2430.000000	75.169	-136.8442
2470.000000	75.573	-135.8490
2500.000000	75.887	-135.0974
2540.000000	76.336	-134.3005
2580.000000	76.789	-133.9168
2620.000000	77.222	-133.8631
2650.000000	77.535	-133.9537
2690.000000	77.944	-134.2070
2720.000000	78.249	-134.4913
2760.000000	78.657	-135.0035
2800.000000	79.072	-135.7088
2850.000000	79.589	-136.9813
2900.000000	80.082	-138.7010
2950.000000	80.547	-140.7828
3000.000000	80.987	-143.2375
3040.000000	81.310	-145.5387
3070.000000	81.524	-147.4528
3110.000000	81.764	-150.1622
3150.000000	81.960	-152.9538
3200.000000	82.157	-156.5260
3250.000000	82.303	-160.2432
3300.000000	82.391	-164.1171
3350.000000	82.411	-168.1224
3400.000000	82.349	-172.1924
3450.000000	82.195	-176.1515
3500.000000	81.955	-179.7974
3550.000000	81.648	177.0100
3600.000000	81.298	174.3441
3650.000000	80.936	172.1642
3700.000000	80.583	170.3305
3750.000000	80.243	168.6974
3820.000000	79.774	166.5586
3870.000000	79.419	165.1591
3950.000000	78.801	163.4867
4000.000000	78.407	162.9059
4060.000000	77.959	162.5966
4120.000000	77.555	162.5464
4180.000000	77.193	162.5838
4250.000000	76.803	162.6360
4310.000000	76.484	162.7230
4370.000000	76.184	162.8203
4440.000000	75.849	162.8390
4500.000000	75.557	162.7343
4550.000000	75.296	162.5893
4620.000000	74.883	162.4557
4680.000000	74.483	162.5868
4750.000000	73.976	163.1747
4820.000000	73.441	164.3377
4870.000000	73.050	165.6069
4940.000000	72.518	168.0998
5000.000000	72.113	170.8991
5080.000000	71.714	175.3653
5150.000000	71.539	179.6063
5220.000000	71.538	-176.2119
5300.000000	71.723	-171.8902
5380.000000	72.062	-168.3271
5450.000000	72.448	-165.9581
5520.000000	72.886	-164.3757
5600.000000	73.414	-163.6082
5700.000000	74.048	-164.2629
5800.000000	74.578	-166.6177
5900.000000	74.934	-170.4552
6000.000000	75.042	-175.3229
6080.000000	74.921	-179.3846
6150.000000	74.672	177.3481
6220.000000	74.310	174.6149
6300.000000	73.796	172.3595
6400.000000	73.089	170.8263
6500.000000	72.387	170.3615
6600.000000	71.718	170.6534
6700.000000	71.087	171.4791
6800.000000	70.482	172.8015
6900.000000	69.910	174.6642
7000.000000	69.392	177.0196
7100.000000	68.952	179.7724
7200.000000	68.614	-177.3130
7300.000000	68.377	-174.5981
7400.000000	68.192	-172.3267
7500.000000	67.989	-170.4384
7620.000000	67.648	-168.0624
7750.000000	67.180	-164.2238
7880.000000	66.806	-158.4012
8000.000000	66.788	-151.7509
8120.000000	67.205	-145.0651
8250.000000	68.090	-139.0641
8380.000000	69.261	-135.3545
8500.000000	70.418	-134.6339
8620.000000	71.477	-136.8807
8750.000000	72.344	-142.5016
8850.000000	72.730	-148.4905
9000.000000	72.794	-158.4128
9120.000000	72.429	-165.5588
9250.000000	71.722	-171.2931
9380.000000	70.839	-174.6032
9500.000000	70.006	-175.8268
9620.000000	69.249	-175.8756
9750.000000	68.561	-175.2019
9880.000000	68.011	-174.2023
10000.000000	67.609	-173.2437
10150.000000	67.218	-172.2281
10300.000000	66.916	-171.6089
10440.000000	66.672	-171.5290
10600.000000	66.381	-172.0349
10750.000000	66.040	-172.8247
10900.000000	65.625	-173.4716
11060.000000	65.167	-173.8636
11200.000000	64.805	-174.4209
11380.000000	64.315	-176.1979
11500.000000	63.845	-177.7262
11720.000000	62.473	-177.9735
11800.000000	61.834	-176.3436
12060.000000	59.936	-163.8053
12200.000000	59.613	-154.3919
12410.000000	60.435	-141.6828
12500.000000	61.099	-137.7486
12650.000000	62.347	-133.8047
12800.000000	63.583	-133.2077
13150.000000	65.730	-143.5595
13200.000000	65.907	-146.0947
13400.000000	66.223	-157.4181
13600.000000	65.938	-168.4046
13800.000000	65.212	-176.7663
14000.000000	64.338	177.9961
14300.000000	63.440	172.9477
14500.000000	63.302	168.2261
14750.000000	63.352	157.4795
15000.000000	63.148	139.9493
15250.000000	62.389	115.3932
15500.000000	61.106	82.5619
15750.000000	59.690	39.9863
16000.000000	59.079	-9.2681
16250.000000	60.000	-57.2849
16500.000000	61.732	-98.0660
16750.000000	63.419	-131.5143
17000.000000	64.756	-160.7695
17250.000000	65.648	171.1288
17500.000000	66.009	142.5739
17750.000000	65.744	113.8562
18000.000000	64.813	86.8535
18250.000000	63.288	63.5232
18500.000000	61.343	44.4465
18750.000000	59.226	28.4133
19000.000000	57.209	13.0939
19250.000000	55.395	-2.9683
19500.000000	53.600	-18.3101
19750.000000	51.660	-29.4573
