* Measurement data measured by REW V5.20.13
* Source: EXCL: Headset (USB-C to 3.5mm Headphone Jack Adapter), MICROPHONE (Master Volume), 0, volume: 0.260. Timing signal peak level -34.7 dBFS, measurement signal peak level -29.6 dBFS
* Format: 256k Log Swept Sine, 1 sweep at -12.0 dBFS using an acoustic timing reference
* Dated: Apr 15, 2024 3:50:01 PM
* REW Settings:
*  C-weighting compensation: Off
*  Target level: 75.0 dB
* Note: Delay -0.0315 ms (-11 mm, -0.42 in) using estimated IR delay relative to Acoustic reference played from SPEAKER L with no timing offset Clock adjustment: -38.4 ppm
* Measurement: HD650 GVOEARS Velour L
* Smoothing: 1/12 octave
* Frequency Step: 1/48 octave
* Start Frequency: 20.000 Hz
*
* Freq(Hz)	SPL(dB)	Phase(degrees)
20.000000	68.583	-19.4629
20.299999	68.813	-20.7026
20.600000	69.042	-21.9179
20.900000	69.271	-23.1310
21.200001	69.496	-24.3591
21.400000	69.643	-25.1881
21.799999	69.927	-26.8595
22.000000	70.063	-27.6933
22.400000	70.325	-29.3348
22.700001	70.513	-30.5303
23.000000	70.698	-31.6909
23.299999	70.880	-32.8228
23.600000	71.061	-33.9357
24.000000	71.300	-35.4062
24.299999	71.475	-36.5073
24.700001	71.701	-37.9729
25.000000	71.864	-39.0615
25.400000	72.072	-40.4822
25.799999	72.274	-41.8526
26.200001	72.471	-43.1708
26.500000	72.617	-44.1337
26.900000	72.811	-45.3978
27.200001	72.955	-46.3399
27.600000	73.143	-47.5914
28.000000	73.324	-48.8318
28.500000	73.543	-50.3538
29.000000	73.757	-51.8422
29.500000	73.965	-53.3105
30.000000	74.167	-54.7694
30.400000	74.323	-55.9268
30.700001	74.437	-56.7855
31.100000	74.585	-57.9164
31.500000	74.730	-59.0346
32.000000	74.906	-60.4222
32.500000	75.074	-61.7978
33.000000	75.234	-63.1462
33.500000	75.388	-64.4528
34.000000	75.538	-65.7173
34.500000	75.685	-66.9523
35.000000	75.829	-68.1663
35.500000	75.968	-69.3564
36.000000	76.105	-70.5163
36.500000	76.239	-71.6500
37.000000	76.373	-72.7716
37.500000	76.504	-73.8939
38.200001	76.679	-75.4657
38.700001	76.797	-76.5755
39.500000	76.978	-78.3113
40.000000	77.087	-79.3799
40.599998	77.213	-80.6591
41.200001	77.332	-81.9352
41.799999	77.443	-83.1942
42.500000	77.564	-84.6268
43.099998	77.662	-85.8230
43.700001	77.754	-86.9889
44.400002	77.857	-88.3062
45.000000	77.941	-89.4023
45.500000	78.009	-90.2978
46.200001	78.099	-91.5144
46.799999	78.172	-92.5003
47.500000	78.260	-93.5857
48.200001	78.353	-94.6541
48.700001	78.419	-95.4288
49.400002	78.504	-96.5081
50.000000	78.573	-97.3925
50.799999	78.665	-98.5124
51.500000	78.748	-99.4778
52.200001	78.828	-100.4414
53.000000	78.918	-101.5202
53.799999	79.006	-102.5805
54.500000	79.082	-103.5069
55.200001	79.154	-104.4246
56.000000	79.235	-105.4562
57.000000	79.335	-106.7433
58.000000	79.428	-108.0295
59.000000	79.514	-109.2824
60.000000	79.599	-110.4956
60.799999	79.668	-111.4565
61.500000	79.728	-112.3074
62.200001	79.787	-113.1740
63.000000	79.848	-114.1764
64.000000	79.914	-115.4230
65.000000	79.971	-116.6382
66.000000	80.017	-117.8063
67.000000	80.055	-118.9115
68.000000	80.087	-119.9431
69.000000	80.114	-120.9006
70.000000	80.138	-121.7880
71.000000	80.161	-122.6169
72.000000	80.182	-123.3982
73.000000	80.202	-124.1283
74.000000	80.224	-124.8055
75.000000	80.251	-125.4544
76.199997	80.291	-126.2368
77.500000	80.339	-127.0803
78.800003	80.393	-127.8861
80.000000	80.452	-128.6036
81.199997	80.518	-129.3146
82.500000	80.595	-130.0891
83.800003	80.674	-130.8863
85.000000	80.744	-131.6578
86.199997	80.812	-132.4673
87.500000	80.880	-133.3908
88.500000	80.930	-134.1390
90.000000	80.995	-135.3130
91.199997	81.036	-136.2628
92.500000	81.071	-137.2679
93.800003	81.099	-138.2421
95.000000	81.118	-139.1177
96.199997	81.129	-139.9645
97.500000	81.135	-140.8330
98.800003	81.138	-141.6404
100.000000	81.142	-142.3332
101.500000	81.152	-143.1415
103.000000	81.170	-143.9055
104.400002	81.192	-144.5945
106.000000	81.219	-145.3671
107.500000	81.244	-146.0967
109.000000	81.267	-146.8559
110.599998	81.287	-147.6988
112.000000	81.301	-148.4446
113.800003	81.312	-149.3794
115.000000	81.314	-149.9670
117.199997	81.306	-150.9515
118.000000	81.303	-151.2952
120.599998	81.290	-152.5251
122.000000	81.277	-153.2765
124.099998	81.247	-154.3824
125.000000	81.233	-154.8182
126.500000	81.208	-155.4778
128.000000	81.180	-156.0520
131.500000	81.107	-157.1264
132.000000	81.098	-157.2578
134.000000	81.066	-157.7412
136.000000	81.051	-158.1680
138.000000	81.051	-158.5655
140.000000	81.064	-158.9829
143.000000	81.084	-159.7320
145.000000	81.091	-160.3045
147.500000	81.090	-161.0406
150.000000	81.080	-161.7372
152.500000	81.063	-162.3724
155.000000	81.043	-162.9541
157.500000	81.027	-163.5133
160.000000	81.020	-164.0742
162.500000	81.018	-164.6259
165.000000	81.018	-165.1647
167.500000	81.017	-165.7012
170.000000	81.012	-166.2372
172.500000	81.007	-166.7724
175.000000	81.002	-167.3036
177.500000	80.995	-167.8318
180.000000	80.988	-168.3649
182.500000	80.978	-168.9091
185.000000	80.964	-169.4518
187.500000	80.945	-169.9774
190.000000	80.926	-170.4899
192.500000	80.907	-170.9907
195.000000	80.888	-171.4674
197.500000	80.868	-171.9188
200.000000	80.847	-172.3556
203.000000	80.819	-172.8731
206.000000	80.790	-173.3922
209.000000	80.761	-173.9107
212.000000	80.731	-174.4125
214.000000	80.711	-174.7322
218.000000	80.670	-175.3375
220.000000	80.649	-175.6264
224.000000	80.607	-176.1841
227.000000	80.574	-176.5941
230.000000	80.538	-177.0042
233.000000	80.498	-177.4091
236.000000	80.455	-177.7980
240.000000	80.400	-178.2713
243.000000	80.361	-178.5817
247.000000	80.312	-178.9483
250.000000	80.275	-179.2072
254.000000	80.225	-179.5468
258.000000	80.178	-179.8735
262.000000	80.130	179.8338
265.000000	80.093	179.6422
269.000000	80.045	179.4116
272.000000	80.012	179.2491
276.000000	79.972	179.0374
280.000000	79.938	178.8171
285.000000	79.901	178.5275
290.000000	79.864	178.2485
295.000000	79.825	177.9777
300.000000	79.786	177.6935
304.000000	79.755	177.4528
307.000000	79.732	177.2685
311.000000	79.701	177.0261
315.000000	79.667	176.7961
320.000000	79.623	176.5305
325.000000	79.575	176.2817
330.000000	79.528	176.0491
335.000000	79.482	175.8362
340.000000	79.438	175.6466
345.000000	79.396	175.4847
350.000000	79.355	175.3410
355.000000	79.314	175.2056
360.000000	79.273	175.0781
365.000000	79.235	174.9597
370.000000	79.198	174.8490
375.000000	79.161	174.7365
382.000000	79.111	174.5637
387.000000	79.074	174.4352
395.000000	79.015	174.2411
400.000000	78.978	174.1370
406.000000	78.935	174.0355
412.000000	78.894	173.9553
418.000000	78.854	173.8820
425.000000	78.811	173.7908
431.000000	78.775	173.7126
437.000000	78.740	173.6375
444.000000	78.702	173.5527
450.000000	78.672	173.4815
455.000000	78.647	173.4187
462.000000	78.609	173.3223
468.000000	78.575	173.2408
475.000000	78.533	173.1606
482.000000	78.493	173.1000
487.000000	78.466	173.0652
494.000000	78.430	173.0227
500.000000	78.398	172.9893
508.000000	78.355	172.9418
515.000000	78.320	172.8920
522.000000	78.285	172.8354
530.000000	78.246	172.7711
538.000000	78.205	172.7163
545.000000	78.167	172.6755
552.000000	78.128	172.6425
560.000000	78.085	172.6158
570.000000	78.031	172.5880
580.000000	77.976	172.5611
590.000000	77.918	172.5496
600.000000	77.858	172.5765
608.000000	77.809	172.6374
615.000000	77.767	172.7139
622.000000	77.729	172.8018
630.000000	77.686	172.9095
640.000000	77.637	173.0593
650.000000	77.591	173.2356
660.000000	77.552	173.4331
670.000000	77.519	173.6336
680.000000	77.494	173.8394
690.000000	77.480	174.0422
700.000000	77.480	174.1830
710.000000	77.487	174.1920
720.000000	77.490	174.0469
730.000000	77.475	173.7875
740.000000	77.439	173.4776
750.000000	77.382	173.1693
762.000000	77.285	172.8632
775.000000	77.144	172.7252
788.000000	76.980	172.9598
800.000000	76.842	173.5521
812.000000	76.747	174.3667
825.000000	76.699	175.2762
838.000000	76.693	176.0547
850.000000	76.707	176.6138
862.000000	76.727	177.0272
875.000000	76.746	177.3394
885.000000	76.754	177.5155
900.000000	76.756	177.7300
912.000000	76.749	177.8870
925.000000	76.736	178.0681
938.000000	76.724	178.2628
950.000000	76.714	178.4349
962.000000	76.704	178.5988
975.000000	76.693	178.7797
988.000000	76.681	178.9642
1000.000000	76.669	179.1354
1015.000000	76.652	179.3581
1030.000000	76.636	179.5930
1044.000000	76.624	179.8067
1060.000000	76.612	-179.9671
1075.000000	76.602	-179.7728
1090.000000	76.591	-179.6133
1106.000000	76.572	-179.4848
1120.000000	76.545	-179.3717
1138.000000	76.501	-179.1630
1150.000000	76.470	-178.9699
1172.000000	76.419	-178.5113
1180.000000	76.404	-178.3219
1206.000000	76.374	-177.7243
1220.000000	76.362	-177.4225
1241.000000	76.347	-176.9673
1250.000000	76.343	-176.7801
1265.000000	76.338	-176.4875
1280.000000	76.330	-176.1989
1315.000000	76.323	-175.5038
1320.000000	76.324	-175.4158
1340.000000	76.324	-175.1070
1360.000000	76.315	-174.7971
1380.000000	76.306	-174.4068
1400.000000	76.308	-173.9781
1430.000000	76.324	-173.4012
1450.000000	76.336	-173.0227
1475.000000	76.357	-172.5522
1500.000000	76.385	-172.1493
1525.000000	76.416	-171.7654
1550.000000	76.462	-171.4298
1575.000000	76.510	-171.2652
1600.000000	76.545	-171.1914
1625.000000	76.574	-171.1564
1650.000000	76.593	-171.1602
1675.000000	76.611	-171.1101
1700.000000	76.648	-171.1086
1725.000000	76.694	-171.3200
1750.000000	76.729	-171.7692
1775.000000	76.737	-172.4592
1800.000000	76.696	-173.3185
1825.000000	76.597	-174.1716
1850.000000	76.450	-174.8884
1875.000000	76.265	-175.4042
1900.000000	76.052	-175.6825
1925.000000	75.825	-175.7446
1950.000000	75.584	-175.6667
1975.000000	75.315	-175.4729
2000.000000	74.998	-175.0289
2030.000000	74.557	-173.8312
2060.000000	74.090	-171.6372
2090.000000	73.666	-168.3934
2120.000000	73.355	-164.2953
2140.000000	73.235	-161.2563
2180.000000	73.236	-154.9293
2200.000000	73.354	-151.8708
2240.000000	73.769	-146.4423
2270.000000	74.179	-143.1251
2300.000000	74.631	-140.4865
2330.000000	75.093	-138.5154
2360.000000	75.535	-137.1210
2400.000000	76.073	-135.8809
2430.000000	76.439	-135.2100
2470.000000	76.894	-134.4827
2500.000000	77.222	-134.0114
2540.000000	77.652	-133.4640
2580.000000	78.084	-132.9958
2620.000000	78.533	-132.6610
2650.000000	78.879	-132.5691
2690.000000	79.339	-132.7137
2720.000000	79.677	-132.9931
2760.000000	80.119	-133.5087
2800.000000	80.566	-134.1675
2850.000000	81.137	-135.3441
2900.000000	81.696	-137.0756
2950.000000	82.214	-139.3647
3000.000000	82.677	-142.1144
3040.000000	83.003	-144.5816
3070.000000	83.220	-146.5639
3110.000000	83.470	-149.3344
3150.000000	83.681	-152.2098
3200.000000	83.893	-155.9663
3250.000000	84.034	-159.9295
3300.000000	84.088	-163.9620
3350.000000	84.062	-167.8889
3400.000000	83.970	-171.6542
3450.000000	83.819	-175.2482
3500.000000	83.607	-178.6380
3550.000000	83.334	178.2803
3600.000000	83.015	175.5982
3650.000000	82.666	173.3180
3700.000000	82.299	171.4166
3750.000000	81.922	169.8945
3820.000000	81.400	168.3254
3870.000000	81.042	167.4987
3950.000000	80.483	166.5758
4000.000000	80.139	166.2877
4060.000000	79.739	166.2662
4120.000000	79.369	166.5514
4180.000000	79.036	167.0974
4250.000000	78.712	167.9792
4310.000000	78.497	168.7877
4370.000000	78.335	169.4624
4440.000000	78.179	169.9810
4500.000000	78.053	170.2266
4550.000000	77.946	170.3173
4620.000000	77.782	170.2944
4680.000000	77.616	170.1906
4750.000000	77.380	170.1053
4820.000000	77.093	170.2630
4870.000000	76.860	170.6757
4940.000000	76.520	171.8710
5000.000000	76.257	173.5384
5080.000000	76.026	176.5646
5150.000000	76.005	179.6544
5220.000000	76.191	-177.3006
5300.000000	76.645	-174.5517
5380.000000	77.271	-173.2508
5450.000000	77.866	-173.6389
5520.000000	78.423	-175.5477
5600.000000	78.931	-179.4846
5700.000000	79.260	173.5277
5800.000000	79.161	165.5161
5900.000000	78.635	158.1196
6000.000000	77.769	152.5833
6080.000000	76.919	149.9030
6150.000000	76.133	148.7912
6220.000000	75.359	148.6358
6300.000000	74.534	149.3515
6400.000000	73.638	151.0798
6500.000000	72.900	153.2004
6600.000000	72.283	155.4304
6700.000000	71.751	157.6867
6800.000000	71.274	160.0074
6900.000000	70.846	162.4938
7000.000000	70.480	165.1705
7100.000000	70.198	167.9272
7200.000000	70.015	170.5658
7300.000000	69.927	172.8238
7400.000000	69.904	174.4305
7500.000000	69.890	175.2408
7620.000000	69.796	175.3281
7750.000000	69.526	175.0811
7880.000000	69.100	175.4312
8000.000000	68.664	176.6987
8120.000000	68.291	178.6424
8250.000000	68.012	-179.0631
8380.000000	67.849	-177.0698
8500.000000	67.761	-175.7112
8620.000000	67.700	-174.8740
8750.000000	67.640	-174.6106
8850.000000	67.579	-174.9239
9000.000000	67.412	-176.2669
9120.000000	67.160	-177.9433
9250.000000	66.723	-179.9518
9380.000000	66.096	178.3839
9500.000000	65.350	177.6551
9620.000000	64.454	178.2343
9750.000000	63.362	-179.0739
9880.000000	62.257	-173.9164
10000.000000	61.391	-167.1676
10150.000000	60.809	-157.1844
10300.000000	60.949	-147.4729
10440.000000	61.584	-140.3654
10600.000000	62.552	-135.6329
10750.000000	63.439	-134.5979
10900.000000	64.155	-136.5930
11060.000000	64.580	-141.5405
11200.000000	64.531	-147.0899
11380.000000	63.797	-152.6035
11500.000000	62.980	-153.5408
11720.000000	61.381	-149.4724
11800.000000	60.919	-146.8699
12060.000000	60.122	-137.5052
12200.000000	60.082	-132.6236
12410.000000	60.446	-125.8194
12500.000000	60.767	-123.1572
12650.000000	61.543	-119.3557
12800.000000	62.579	-117.0354
13150.000000	65.099	-123.0369
13200.000000	65.363	-125.5291
13400.000000	65.952	-138.8492
13600.000000	65.683	-154.5776
13800.000000	64.578	-168.5893
14000.000000	62.822	-179.0536
14300.000000	59.680	166.8670
14500.000000	58.345	150.0113
14750.000000	59.924	110.1017
15000.000000	63.848	52.2862
15250.000000	67.323	-6.9645
15500.000000	69.520	-57.9944
15750.000000	70.362	-99.3990
16000.000000	70.101	-130.3447
16250.000000	69.245	-151.4205
16500.000000	68.357	-165.9465
16750.000000	67.766	-177.7827
17000.000000	67.485	170.4908
17250.000000	67.382	157.5475
17500.000000	67.327	142.6431
17750.000000	67.183	125.2463
18000.000000	66.753	105.6579
18250.000000	65.826	86.1343
18500.000000	64.335	70.4437
18750.000000	62.546	60.9879
19000.000000	61.267	55.8019
19250.000000	61.298	49.2847
19500.000000	62.175	37.5820
19750.000000	63.012	23.0134
