* Measurement data measured by REW V5.20.13
* Source: EXCL: Headset (USB-C to 3.5mm Headphone Jack Adapter), MICROPHONE (Master Volume), 0, volume: 0.260. Timing signal peak level -33.9 dBFS, measurement signal peak level -27.5 dBFS
* Format: 256k Log Swept Sine, 1 sweep at -12.0 dBFS using an acoustic timing reference
* Dated: Apr 15, 2024 3:56:32 PM
* REW Settings:
*  C-weighting compensation: Off
*  Target level: 75.0 dB
* Note: Delay -0.0313 ms (-11 mm, -0.42 in) using estimated IR delay relative to Acoustic reference played from SPEAKER L with no timing offset Clock adjustment: -37.9 ppm
* Measurement: HD650 Sodorous Cloth L
* Smoothing: 1/12 octave
* Frequency Step: 1/48 octave
* Start Frequency: 20.000 Hz
*
* Freq(Hz)	SPL(dB)	Phase(degrees)
20.000000	66.501	-20.0818
20.299999	66.741	-21.3915
20.600000	66.971	-22.7099
20.900000	67.190	-24.0198
21.200001	67.401	-25.3034
21.400000	67.538	-26.1394
21.799999	67.805	-27.7684
22.000000	67.937	-28.5658
22.400000	68.195	-30.1403
22.700001	68.385	-31.3111
23.000000	68.570	-32.4738
23.299999	68.749	-33.6227
23.600000	68.924	-34.7527
24.000000	69.151	-36.2257
24.299999	69.317	-37.3070
24.700001	69.535	-38.7240
25.000000	69.695	-39.7722
25.400000	69.904	-41.1515
25.799999	70.107	-42.5078
26.200001	70.305	-43.8404
26.500000	70.450	-44.8262
26.900000	70.640	-46.1261
27.200001	70.780	-47.0918
27.600000	70.961	-48.3671
28.000000	71.137	-49.6265
28.500000	71.351	-51.1778
29.000000	71.556	-52.7054
29.500000	71.754	-54.2063
30.000000	71.945	-55.6721
30.400000	72.093	-56.8185
30.700001	72.203	-57.6673
31.100000	72.347	-58.7937
31.500000	72.487	-59.9201
32.000000	72.652	-61.3218
32.500000	72.805	-62.6894
33.000000	72.950	-63.9937
33.500000	73.091	-65.2303
34.000000	73.232	-66.4191
34.500000	73.372	-67.5842
35.000000	73.510	-68.7381
35.500000	73.646	-69.8855
36.000000	73.779	-71.0303
36.500000	73.907	-72.1762
37.000000	74.031	-73.3223
37.500000	74.150	-74.4632
38.200001	74.308	-76.0464
38.700001	74.416	-77.1689
39.500000	74.577	-78.9454
40.000000	74.672	-80.0305
40.599998	74.779	-81.2951
41.200001	74.881	-82.5160
41.799999	74.979	-83.6942
42.500000	75.088	-85.0151
43.099998	75.178	-86.1047
43.700001	75.263	-87.1589
44.400002	75.356	-88.3393
45.000000	75.431	-89.3001
45.500000	75.491	-90.0644
46.200001	75.574	-91.0877
46.799999	75.643	-91.9285
47.500000	75.724	-92.8648
48.200001	75.807	-93.7529
48.700001	75.870	-94.3673
49.400002	75.962	-95.2158
50.000000	76.044	-95.9327
50.799999	76.161	-96.8688
51.500000	76.273	-97.7030
52.200001	76.390	-98.6022
53.000000	76.515	-99.7060
53.799999	76.625	-100.8170
54.500000	76.715	-101.7590
55.200001	76.801	-102.6808
56.000000	76.893	-103.7203
57.000000	77.001	-104.9985
58.000000	77.101	-106.2692
59.000000	77.190	-107.5410
60.000000	77.270	-108.7947
60.799999	77.328	-109.7759
61.500000	77.375	-110.6159
62.200001	77.420	-111.4365
63.000000	77.471	-112.3544
64.000000	77.531	-113.4813
65.000000	77.585	-114.5767
66.000000	77.631	-115.6104
67.000000	77.672	-116.5500
68.000000	77.713	-117.3906
69.000000	77.759	-118.1650
70.000000	77.808	-118.9038
71.000000	77.857	-119.6188
72.000000	77.907	-120.3145
73.000000	77.960	-120.9899
74.000000	78.019	-121.6653
75.000000	78.084	-122.3830
76.199997	78.161	-123.2982
77.500000	78.242	-124.2912
78.800003	78.325	-125.2783
80.000000	78.399	-126.1966
81.199997	78.472	-127.1154
82.500000	78.546	-128.1228
83.800003	78.615	-129.1549
85.000000	78.671	-130.1175
86.199997	78.720	-131.0732
87.500000	78.768	-132.0957
88.500000	78.801	-132.8728
90.000000	78.840	-134.0098
91.199997	78.865	-134.8767
92.500000	78.887	-135.7607
93.800003	78.909	-136.5926
95.000000	78.930	-137.3250
96.199997	78.953	-138.0350
97.500000	78.979	-138.7872
98.800003	79.005	-139.5269
100.000000	79.030	-140.2110
101.500000	79.060	-141.0835
103.000000	79.086	-141.9696
104.400002	79.106	-142.7915
106.000000	79.125	-143.7087
107.500000	79.138	-144.5413
109.000000	79.148	-145.3551
110.599998	79.153	-146.2094
112.000000	79.155	-146.9395
113.800003	79.155	-147.8325
115.000000	79.156	-148.3857
117.199997	79.161	-149.2969
118.000000	79.164	-149.6014
120.599998	79.175	-150.6219
122.000000	79.171	-151.2311
124.099998	79.152	-152.1497
125.000000	79.143	-152.5256
126.500000	79.128	-153.1206
128.000000	79.116	-153.6776
131.500000	79.088	-154.8509
132.000000	79.084	-155.0065
134.000000	79.069	-155.6039
136.000000	79.061	-156.1636
138.000000	79.061	-156.6987
140.000000	79.067	-157.2350
143.000000	79.075	-158.0725
145.000000	79.078	-158.6507
147.500000	79.081	-159.3838
150.000000	79.080	-160.1216
152.500000	79.076	-160.8582
155.000000	79.070	-161.5870
157.500000	79.060	-162.3041
160.000000	79.045	-162.9961
162.500000	79.025	-163.6605
165.000000	79.002	-164.3120
167.500000	78.976	-164.9487
170.000000	78.947	-165.5515
172.500000	78.915	-166.1069
175.000000	78.880	-166.5985
177.500000	78.849	-167.0211
180.000000	78.826	-167.3955
182.500000	78.813	-167.7567
185.000000	78.807	-168.1399
187.500000	78.805	-168.5708
190.000000	78.802	-169.0570
192.500000	78.795	-169.5864
195.000000	78.782	-170.1354
197.500000	78.761	-170.6825
200.000000	78.733	-171.2135
203.000000	78.693	-171.8162
206.000000	78.647	-172.3720
209.000000	78.598	-172.8750
212.000000	78.547	-173.3221
214.000000	78.513	-173.5894
218.000000	78.448	-174.0582
220.000000	78.419	-174.2689
224.000000	78.365	-174.6744
227.000000	78.328	-174.9816
230.000000	78.292	-175.2910
233.000000	78.255	-175.5899
236.000000	78.214	-175.8661
240.000000	78.158	-176.1973
243.000000	78.118	-176.4265
247.000000	78.069	-176.7081
250.000000	78.036	-176.9012
254.000000	77.997	-177.1458
258.000000	77.960	-177.3857
262.000000	77.923	-177.6212
265.000000	77.896	-177.7910
269.000000	77.864	-178.0038
272.000000	77.841	-178.1562
276.000000	77.812	-178.3592
280.000000	77.784	-178.5657
285.000000	77.750	-178.8373
290.000000	77.715	-179.1294
295.000000	77.679	-179.4232
300.000000	77.640	-179.7046
304.000000	77.610	-179.9250
307.000000	77.586	179.9107
311.000000	77.555	179.6958
315.000000	77.521	179.4891
320.000000	77.477	179.2428
325.000000	77.433	179.0139
330.000000	77.388	178.8087
335.000000	77.342	178.6285
340.000000	77.297	178.4698
345.000000	77.254	178.3231
350.000000	77.212	178.1821
355.000000	77.172	178.0484
360.000000	77.132	177.9249
365.000000	77.094	177.8064
370.000000	77.055	177.6869
375.000000	77.015	177.5652
382.000000	76.957	177.3968
387.000000	76.913	177.2878
395.000000	76.839	177.1634
400.000000	76.792	177.1243
406.000000	76.739	177.1101
412.000000	76.688	177.1183
418.000000	76.639	177.1415
425.000000	76.584	177.1983
431.000000	76.540	177.2806
437.000000	76.503	177.3850
444.000000	76.467	177.5087
450.000000	76.442	177.5958
455.000000	76.423	177.6473
462.000000	76.397	177.6851
468.000000	76.372	177.6909
475.000000	76.338	177.6833
482.000000	76.299	177.6862
487.000000	76.268	177.7097
494.000000	76.223	177.7882
500.000000	76.186	177.9036
508.000000	76.144	178.1056
515.000000	76.118	178.2883
522.000000	76.097	178.4482
530.000000	76.077	178.5977
538.000000	76.055	178.7269
545.000000	76.036	178.8402
552.000000	76.016	178.9644
560.000000	75.994	179.1209
570.000000	75.971	179.3281
580.000000	75.954	179.5354
590.000000	75.942	179.7252
600.000000	75.931	179.8906
608.000000	75.922	-179.9855
615.000000	75.915	-179.8810
622.000000	75.909	-179.7802
630.000000	75.902	-179.6656
640.000000	75.894	-179.5159
650.000000	75.888	-179.3642
660.000000	75.886	-179.2225
670.000000	75.885	-179.0925
680.000000	75.885	-178.9575
690.000000	75.893	-178.8201
700.000000	75.910	-178.7257
710.000000	75.931	-178.7151
720.000000	75.945	-178.7850
730.000000	75.951	-178.8986
740.000000	75.949	-179.0262
750.000000	75.943	-179.1642
762.000000	75.928	-179.3568
775.000000	75.897	-179.6076
788.000000	75.843	-179.8643
800.000000	75.768	179.9753
812.000000	75.672	179.9905
825.000000	75.563	-179.7009
838.000000	75.477	-179.0991
850.000000	75.440	-178.4187
862.000000	75.442	-177.7845
875.000000	75.470	-177.2649
885.000000	75.498	-176.9896
900.000000	75.538	-176.7245
912.000000	75.565	-176.6007
925.000000	75.588	-176.5223
938.000000	75.605	-176.4843
950.000000	75.615	-176.4799
962.000000	75.619	-176.4932
975.000000	75.616	-176.5150
988.000000	75.607	-176.5370
1000.000000	75.593	-176.5390
1015.000000	75.570	-176.4868
1030.000000	75.549	-176.3793
1044.000000	75.535	-176.2673
1060.000000	75.521	-176.1602
1075.000000	75.506	-176.0800
1090.000000	75.488	-176.0101
1106.000000	75.463	-175.9374
1120.000000	75.437	-175.8548
1138.000000	75.399	-175.7119
1150.000000	75.372	-175.5986
1172.000000	75.317	-175.3233
1180.000000	75.296	-175.1884
1206.000000	75.242	-174.6253
1220.000000	75.225	-174.2817
1241.000000	75.217	-173.8017
1250.000000	75.217	-173.6245
1265.000000	75.215	-173.3615
1280.000000	75.210	-173.1116
1315.000000	75.200	-172.5007
1320.000000	75.200	-172.4189
1340.000000	75.194	-172.1141
1360.000000	75.180	-171.7856
1380.000000	75.167	-171.3748
1400.000000	75.167	-170.9322
1430.000000	75.176	-170.3293
1450.000000	75.181	-169.9154
1475.000000	75.194	-169.3548
1500.000000	75.217	-168.7762
1525.000000	75.256	-168.1577
1550.000000	75.323	-167.5993
1575.000000	75.400	-167.2333
1600.000000	75.469	-166.9531
1625.000000	75.542	-166.6987
1650.000000	75.622	-166.5343
1675.000000	75.705	-166.4713
1700.000000	75.788	-166.5214
1725.000000	75.870	-166.7015
1750.000000	75.946	-167.0211
1775.000000	76.011	-167.5041
1800.000000	76.056	-168.1295
1825.000000	76.081	-168.8600
1850.000000	76.086	-169.7253
1875.000000	76.061	-170.7815
1900.000000	75.983	-171.9917
1925.000000	75.836	-173.2081
1950.000000	75.618	-174.2594
1975.000000	75.336	-174.9953
2000.000000	74.998	-175.2865
2030.000000	74.543	-174.9148
2060.000000	74.061	-173.6455
2090.000000	73.598	-171.4285
2120.000000	73.200	-168.3589
2140.000000	72.990	-165.9156
2180.000000	72.756	-160.2958
2200.000000	72.755	-157.2940
2240.000000	72.989	-151.5596
2270.000000	73.320	-147.9020
2300.000000	73.725	-144.9493
2330.000000	74.159	-142.7084
2360.000000	74.589	-141.1282
2400.000000	75.111	-139.8159
2430.000000	75.451	-139.1861
2470.000000	75.851	-138.4562
2500.000000	76.139	-137.8253
2540.000000	76.549	-136.9117
2580.000000	76.999	-136.1572
2620.000000	77.471	-135.7388
2650.000000	77.826	-135.6497
2690.000000	78.297	-135.7701
2720.000000	78.653	-136.0198
2760.000000	79.133	-136.6161
2800.000000	79.609	-137.5797
2850.000000	80.173	-139.3245
2900.000000	80.683	-141.5755
2950.000000	81.132	-144.1518
3000.000000	81.535	-146.9272
3040.000000	81.835	-149.2889
3070.000000	82.050	-151.1815
3110.000000	82.316	-153.9370
3150.000000	82.541	-156.9912
3200.000000	82.736	-161.1049
3250.000000	82.835	-165.2766
3300.000000	82.865	-169.3428
3350.000000	82.847	-173.3786
3400.000000	82.770	-177.4976
3450.000000	82.609	178.3723
3500.000000	82.356	174.4500
3550.000000	82.025	170.9300
3600.000000	81.640	167.8785
3650.000000	81.222	165.2609
3700.000000	80.777	163.0702
3750.000000	80.317	161.3264
3820.000000	79.683	159.4871
3870.000000	79.242	158.4416
3950.000000	78.523	157.2209
4000.000000	78.060	156.8996
4060.000000	77.517	157.0439
4120.000000	77.026	157.6057
4180.000000	76.593	158.3442
4250.000000	76.141	159.3113
4310.000000	75.790	160.2192
4370.000000	75.470	161.1426
4440.000000	75.122	162.2088
4500.000000	74.841	163.1329
4550.000000	74.618	163.8799
4620.000000	74.307	164.8589
4680.000000	74.024	165.7183
4750.000000	73.666	166.9235
4820.000000	73.283	168.5222
4870.000000	73.004	170.0062
4940.000000	72.632	172.6815
5000.000000	72.370	175.5300
5080.000000	72.162	179.9192
5150.000000	72.156	-175.9704
5220.000000	72.338	-171.9550
5300.000000	72.765	-167.9887
5380.000000	73.366	-165.1887
5450.000000	73.967	-163.9814
5520.000000	74.577	-164.0635
5600.000000	75.215	-165.7738
5700.000000	75.814	-170.1691
5800.000000	76.076	-176.3998
5900.000000	75.931	176.8232
6000.000000	75.396	171.0018
6080.000000	74.755	167.7598
6150.000000	74.099	166.1253
6220.000000	73.403	165.5922
6300.000000	72.614	166.2070
6400.000000	71.725	168.3941
6500.000000	71.004	171.5381
6600.000000	70.459	175.2059
6700.000000	70.081	179.1612
6800.000000	69.868	-176.8171
6900.000000	69.813	-172.9132
7000.000000	69.917	-169.3293
7100.000000	70.164	-166.3955
7200.000000	70.506	-164.4416
7300.000000	70.874	-163.6386
7400.000000	71.198	-163.9690
7500.000000	71.423	-165.2163
7620.000000	71.515	-167.3240
7750.000000	71.411	-169.4091
7880.000000	71.201	-170.6237
8000.000000	71.032	-171.0495
8120.000000	70.953	-171.3643
8250.000000	70.950	-172.2414
8380.000000	70.961	-174.0438
8500.000000	70.919	-176.5636
8620.000000	70.777	-179.7837
8750.000000	70.470	176.1950
8850.000000	70.105	172.9640
9000.000000	69.328	168.3952
9120.000000	68.496	165.4851
9250.000000	67.379	163.7921
9380.000000	66.064	164.3896
9500.000000	64.745	167.4840
9620.000000	63.446	173.1251
9750.000000	62.286	-178.3697
9880.000000	61.657	-168.5311
10000.000000	61.686	-159.6436
10150.000000	62.385	-150.7621
10300.000000	63.377	-145.8593
10440.000000	64.209	-145.0796
10600.000000	64.821	-147.5820
10750.000000	64.992	-151.5021
10900.000000	64.796	-155.2086
11060.000000	64.306	-157.6359
11200.000000	63.787	-158.3389
11380.000000	63.132	-158.1226
11500.000000	62.684	-157.5434
11720.000000	61.753	-154.5682
11800.000000	61.409	-152.4973
12060.000000	60.796	-142.1839
12200.000000	61.072	-135.7501
12410.000000	62.244	-128.1499
12500.000000	62.890	-126.3387
12650.000000	63.966	-125.7105
12800.000000	64.901	-127.9946
13150.000000	66.104	-140.8807
13200.000000	66.156	-143.0799
13400.000000	66.098	-151.4754
13600.000000	65.736	-158.2064
13800.000000	65.291	-162.8178
14000.000000	65.015	-166.0485
14300.000000	65.194	-171.5990
14500.000000	65.628	-177.9432
14750.000000	66.274	169.0004
15000.000000	66.747	147.8862
15250.000000	66.672	116.2653
15500.000000	65.662	74.2001
15750.000000	63.622	25.4399
16000.000000	61.110	-24.8342
16250.000000	59.494	-70.9535
16500.000000	59.636	-108.4349
16750.000000	60.785	-137.1164
17000.000000	62.131	-161.0343
17250.000000	63.165	174.8779
17500.000000	63.509	148.9485
17750.000000	63.016	123.6923
18000.000000	61.757	102.9276
18250.000000	59.960	89.2473
18500.000000	58.131	82.7381
18750.000000	57.256	79.8047
19000.000000	57.896	74.1688
19250.000000	59.226	61.2892
19500.000000	60.387	41.8143
19750.000000	61.106	21.3453
