* Measurement data measured by REW V5.20.13
* Source: EXCL: Headset (USB-C to 3.5mm Headphone Jack Adapter), MICROPHONE (Master Volume), 0, volume: 0.260. Timing signal peak level -33.2 dBFS, measurement signal peak level -26.8 dBFS
* Format: 256k Log Swept Sine, 1 sweep at -12.0 dBFS using an acoustic timing reference
* Dated: Apr 15, 2024 3:54:25 PM
* REW Settings:
*  C-weighting compensation: Off
*  Target level: 75.0 dB
* Note: Delay -0.0380 ms (-13 mm, -0.51 in) using estimated IR delay relative to Acoustic reference played from SPEAKER L with no timing offset Clock adjustment: -37.5 ppm
* Measurement: HD650 AHG V L
* Smoothing: 1/12 octave
* Frequency Step: 1/48 octave
* Start Frequency: 20.000 Hz
*
* Freq(Hz)	SPL(dB)	Phase(degrees)
20.000000	64.774	-17.3594
20.299999	65.028	-18.4954
20.600000	65.284	-19.6526
20.900000	65.535	-20.8601
21.200001	65.777	-22.1302
21.400000	65.929	-23.0039
21.799999	66.210	-24.7770
22.000000	66.338	-25.6516
22.400000	66.571	-27.3215
22.700001	66.734	-28.4738
23.000000	66.894	-29.5306
23.299999	67.057	-30.5110
23.600000	67.226	-31.4468
24.000000	67.464	-32.6870
24.299999	67.647	-33.6555
24.700001	67.891	-35.0284
25.000000	68.067	-36.1147
25.400000	68.290	-37.6058
25.799999	68.497	-39.0941
26.200001	68.694	-40.5400
26.500000	68.836	-41.5900
26.900000	69.023	-42.9514
27.200001	69.159	-43.9500
27.600000	69.336	-45.2512
28.000000	69.505	-46.5029
28.500000	69.710	-47.9713
29.000000	69.917	-49.3401
29.500000	70.129	-50.6689
30.000000	70.340	-52.0293
30.400000	70.500	-53.1531
30.700001	70.613	-54.0035
31.100000	70.753	-55.1177
31.500000	70.886	-56.1862
32.000000	71.047	-57.4541
32.500000	71.210	-58.6852
33.000000	71.372	-59.9297
33.500000	71.530	-61.2014
34.000000	71.680	-62.4786
34.500000	71.825	-63.7374
35.000000	71.967	-64.9791
35.500000	72.106	-66.2185
36.000000	72.239	-67.4548
36.500000	72.365	-68.6643
37.000000	72.486	-69.8225
37.500000	72.606	-70.9312
38.200001	72.774	-72.4484
38.700001	72.890	-73.5337
39.500000	73.061	-75.2594
40.000000	73.159	-76.3105
40.599998	73.268	-77.5397
41.200001	73.369	-78.7396
41.799999	73.461	-79.9007
42.500000	73.560	-81.1764
43.099998	73.643	-82.1951
43.700001	73.729	-83.1674
44.400002	73.828	-84.2566
45.000000	73.912	-85.1282
45.500000	73.985	-85.8015
46.200001	74.096	-86.7036
46.799999	74.192	-87.4779
47.500000	74.296	-88.3372
48.200001	74.400	-89.0577
48.700001	74.486	-89.4966
49.400002	74.632	-90.1224
50.000000	74.772	-90.7800
50.799999	74.958	-91.9043
51.500000	75.099	-93.0834
52.200001	75.212	-94.3444
53.000000	75.311	-95.7587
53.799999	75.392	-97.0822
54.500000	75.457	-98.1722
55.200001	75.517	-99.2089
56.000000	75.581	-100.3320
57.000000	75.655	-101.6470
58.000000	75.721	-102.8398
59.000000	75.785	-103.8781
60.000000	75.858	-104.7838
60.799999	75.925	-105.4492
61.500000	75.992	-106.0197
62.200001	76.064	-106.6109
63.000000	76.145	-107.3245
64.000000	76.239	-108.2307
65.000000	76.330	-109.1091
66.000000	76.420	-109.9777
67.000000	76.510	-110.8574
68.000000	76.599	-111.7588
69.000000	76.683	-112.6934
70.000000	76.760	-113.6601
71.000000	76.827	-114.6346
72.000000	76.883	-115.5829
73.000000	76.935	-116.4854
74.000000	76.987	-117.3508
75.000000	77.040	-118.1944
76.199997	77.107	-119.1745
77.500000	77.185	-120.1936
78.800003	77.267	-121.1790
80.000000	77.344	-122.0691
81.199997	77.418	-122.9610
82.500000	77.490	-123.9425
83.800003	77.552	-124.9470
85.000000	77.604	-125.9003
86.199997	77.651	-126.8679
87.500000	77.699	-127.9073
88.500000	77.735	-128.6870
90.000000	77.786	-129.8092
91.199997	77.820	-130.6581
92.500000	77.849	-131.5247
93.800003	77.875	-132.3484
95.000000	77.898	-133.0981
96.199997	77.922	-133.8580
97.500000	77.948	-134.7000
98.800003	77.973	-135.5568
100.000000	77.992	-136.3479
101.500000	78.007	-137.3171
103.000000	78.010	-138.2391
104.400002	78.004	-139.0254
106.000000	77.993	-139.8025
107.500000	77.989	-140.4296
109.000000	77.997	-141.0134
110.599998	78.016	-141.6243
112.000000	78.039	-142.1494
113.800003	78.077	-142.8103
115.000000	78.105	-143.2506
117.199997	78.155	-144.0806
118.000000	78.171	-144.3984
120.599998	78.214	-145.5724
122.000000	78.223	-146.2752
124.099998	78.225	-147.3113
125.000000	78.223	-147.7443
126.500000	78.217	-148.4617
128.000000	78.202	-149.1674
131.500000	78.134	-150.6710
132.000000	78.123	-150.8552
134.000000	78.077	-151.4816
136.000000	78.044	-151.9265
138.000000	78.028	-152.2463
140.000000	78.031	-152.5438
143.000000	78.064	-153.1199
145.000000	78.098	-153.6008
147.500000	78.136	-154.2156
150.000000	78.155	-154.7844
152.500000	78.156	-155.3652
155.000000	78.151	-156.0352
157.500000	78.151	-156.7759
160.000000	78.155	-157.5136
162.500000	78.155	-158.1953
165.000000	78.155	-158.8376
167.500000	78.152	-159.4613
170.000000	78.144	-160.0670
172.500000	78.131	-160.6640
175.000000	78.115	-161.2639
177.500000	78.098	-161.8591
180.000000	78.078	-162.4352
182.500000	78.054	-162.9944
185.000000	78.027	-163.5378
187.500000	78.000	-164.0524
190.000000	77.974	-164.5303
192.500000	77.947	-164.9763
195.000000	77.917	-165.4003
197.500000	77.884	-165.8063
200.000000	77.851	-166.1924
203.000000	77.811	-166.6310
206.000000	77.772	-167.0492
209.000000	77.734	-167.4405
212.000000	77.697	-167.7919
214.000000	77.673	-168.0055
218.000000	77.624	-168.4031
220.000000	77.601	-168.5941
224.000000	77.556	-168.9709
227.000000	77.522	-169.2498
230.000000	77.484	-169.5149
233.000000	77.446	-169.7540
236.000000	77.406	-169.9627
240.000000	77.355	-170.1983
243.000000	77.323	-170.3533
247.000000	77.287	-170.5316
250.000000	77.263	-170.6398
254.000000	77.236	-170.7622
258.000000	77.213	-170.8763
262.000000	77.193	-170.9951
265.000000	77.179	-171.0987
269.000000	77.164	-171.2689
272.000000	77.153	-171.4158
276.000000	77.137	-171.6228
280.000000	77.120	-171.8365
285.000000	77.097	-172.1105
290.000000	77.077	-172.3727
295.000000	77.055	-172.6045
300.000000	77.029	-172.8118
304.000000	77.006	-172.9677
307.000000	76.987	-173.0840
311.000000	76.962	-173.2444
315.000000	76.938	-173.4133
320.000000	76.908	-173.6255
325.000000	76.879	-173.8221
330.000000	76.849	-173.9984
335.000000	76.818	-174.1517
340.000000	76.784	-174.2733
345.000000	76.749	-174.3660
350.000000	76.714	-174.4441
355.000000	76.679	-174.5137
360.000000	76.646	-174.5785
365.000000	76.614	-174.6382
370.000000	76.584	-174.6838
375.000000	76.554	-174.7090
382.000000	76.512	-174.7169
387.000000	76.481	-174.7061
395.000000	76.434	-174.6585
400.000000	76.407	-174.6081
406.000000	76.380	-174.5317
412.000000	76.356	-174.4523
418.000000	76.335	-174.3829
425.000000	76.311	-174.3121
431.000000	76.292	-174.2500
437.000000	76.272	-174.1788
444.000000	76.249	-174.0758
450.000000	76.230	-173.9697
455.000000	76.218	-173.8726
462.000000	76.204	-173.7335
468.000000	76.197	-173.6238
475.000000	76.189	-173.5172
482.000000	76.181	-173.4292
487.000000	76.175	-173.3715
494.000000	76.164	-173.2930
500.000000	76.155	-173.2275
508.000000	76.141	-173.1442
515.000000	76.126	-173.0643
522.000000	76.106	-172.9514
530.000000	76.082	-172.7527
538.000000	76.065	-172.4821
545.000000	76.058	-172.2153
552.000000	76.060	-171.9474
560.000000	76.071	-171.6583
570.000000	76.094	-171.3313
580.000000	76.125	-171.0438
590.000000	76.162	-170.8095
600.000000	76.203	-170.6394
608.000000	76.235	-170.5447
615.000000	76.263	-170.4862
622.000000	76.290	-170.4470
630.000000	76.319	-170.4213
640.000000	76.353	-170.4072
650.000000	76.385	-170.4048
660.000000	76.416	-170.4113
670.000000	76.449	-170.4318
680.000000	76.484	-170.4774
690.000000	76.519	-170.5577
700.000000	76.553	-170.6781
710.000000	76.584	-170.8419
720.000000	76.610	-171.0435
730.000000	76.629	-171.2697
740.000000	76.644	-171.5140
750.000000	76.654	-171.7848
762.000000	76.659	-172.1638
775.000000	76.643	-172.6487
788.000000	76.593	-173.1402
800.000000	76.510	-173.4534
812.000000	76.405	-173.4779
825.000000	76.298	-173.1032
838.000000	76.237	-172.4307
850.000000	76.237	-171.7702
862.000000	76.278	-171.2541
875.000000	76.343	-170.9429
885.000000	76.393	-170.8623
900.000000	76.456	-170.9139
912.000000	76.494	-171.0464
925.000000	76.523	-171.2376
938.000000	76.541	-171.4517
950.000000	76.550	-171.6622
962.000000	76.551	-171.8791
975.000000	76.544	-172.1111
988.000000	76.528	-172.3281
1000.000000	76.505	-172.4936
1015.000000	76.471	-172.6275
1030.000000	76.439	-172.6958
1044.000000	76.413	-172.7448
1060.000000	76.384	-172.8068
1075.000000	76.353	-172.8555
1090.000000	76.322	-172.8929
1106.000000	76.285	-172.9296
1120.000000	76.249	-172.9458
1138.000000	76.202	-172.9404
1150.000000	76.168	-172.9314
1172.000000	76.094	-172.8696
1180.000000	76.064	-172.8085
1206.000000	75.974	-172.4425
1220.000000	75.939	-172.1902
1241.000000	75.900	-171.8306
1250.000000	75.887	-171.6964
1265.000000	75.865	-171.4973
1280.000000	75.841	-171.3115
1315.000000	75.782	-170.8540
1320.000000	75.774	-170.7918
1340.000000	75.736	-170.5579
1360.000000	75.686	-170.2725
1380.000000	75.639	-169.8666
1400.000000	75.606	-169.4227
1430.000000	75.563	-168.8446
1450.000000	75.525	-168.4146
1475.000000	75.484	-167.7490
1500.000000	75.459	-167.0112
1525.000000	75.451	-166.1917
1550.000000	75.476	-165.3556
1575.000000	75.524	-164.6688
1600.000000	75.579	-164.0837
1625.000000	75.646	-163.5933
1650.000000	75.717	-163.2628
1675.000000	75.781	-163.0162
1700.000000	75.851	-162.8442
1725.000000	75.921	-162.8206
1750.000000	75.979	-162.9395
1775.000000	76.024	-163.1450
1800.000000	76.062	-163.4091
1825.000000	76.100	-163.8072
1850.000000	76.127	-164.4767
1875.000000	76.111	-165.4330
1900.000000	76.026	-166.5331
1925.000000	75.864	-167.5740
1950.000000	75.631	-168.3657
1975.000000	75.337	-168.7680
2000.000000	74.998	-168.6709
2030.000000	74.560	-167.8025
2060.000000	74.122	-166.1091
2090.000000	73.716	-163.6099
2120.000000	73.380	-160.4055
2140.000000	73.209	-157.9449
2180.000000	73.029	-152.3789
2200.000000	73.044	-149.4065
2240.000000	73.297	-143.6957
2270.000000	73.635	-140.0169
2300.000000	74.043	-137.0125
2330.000000	74.478	-134.6913
2360.000000	74.907	-132.9797
2400.000000	75.436	-131.3758
2430.000000	75.802	-130.4674
2470.000000	76.263	-129.4570
2500.000000	76.598	-128.8035
2540.000000	77.037	-128.0402
2580.000000	77.483	-127.3256
2620.000000	77.962	-126.6987
2650.000000	78.344	-126.4055
2690.000000	78.869	-126.3819
2720.000000	79.259	-126.6627
2760.000000	79.761	-127.3944
2800.000000	80.237	-128.4474
2850.000000	80.795	-130.1337
2900.000000	81.315	-132.1698
2950.000000	81.796	-134.5226
3000.000000	82.240	-137.1818
3040.000000	82.567	-139.5284
3070.000000	82.795	-141.4275
3110.000000	83.070	-144.1612
3150.000000	83.303	-147.1320
3200.000000	83.516	-151.0797
3250.000000	83.645	-155.0746
3300.000000	83.710	-159.0207
3350.000000	83.722	-162.9595
3400.000000	83.678	-166.9485
3450.000000	83.559	-170.9778
3500.000000	83.349	-174.8773
3550.000000	83.052	-178.4104
3600.000000	82.693	178.5732
3650.000000	82.301	176.0865
3700.000000	81.898	174.0520
3750.000000	81.499	172.3631
3820.000000	80.948	170.4216
3870.000000	80.557	169.2701
3950.000000	79.914	167.8702
4000.000000	79.504	167.3742
4060.000000	79.021	167.1920
4120.000000	78.571	167.3798
4180.000000	78.165	167.7974
4250.000000	77.743	168.4263
4310.000000	77.417	169.0266
4370.000000	77.119	169.6316
4440.000000	76.796	170.2969
4500.000000	76.532	170.8137
4550.000000	76.312	171.1989
4620.000000	75.989	171.7117
4680.000000	75.689	172.2195
4750.000000	75.307	173.0277
4820.000000	74.893	174.2231
4870.000000	74.583	175.4321
4940.000000	74.153	177.7711
5000.000000	73.826	-179.5889
5080.000000	73.522	-175.3057
5150.000000	73.433	-171.1566
5220.000000	73.537	-167.0364
5300.000000	73.876	-162.8798
5380.000000	74.388	-159.7657
5450.000000	74.919	-158.1281
5520.000000	75.473	-157.6134
5600.000000	76.073	-158.4213
5700.000000	76.684	-161.3847
5800.000000	77.041	-166.0452
5900.000000	77.081	-171.4575
6000.000000	76.809	-176.4747
6080.000000	76.419	-179.6042
6150.000000	76.001	178.4739
6220.000000	75.550	177.3069
6300.000000	75.042	176.7773
6400.000000	74.480	176.9448
6500.000000	74.033	177.4608
6600.000000	73.671	177.8990
6700.000000	73.347	178.1302
6800.000000	73.023	178.1876
6900.000000	72.675	178.2078
7000.000000	72.304	178.3228
7100.000000	71.916	178.5589
7200.000000	71.513	178.9160
7300.000000	71.092	179.3809
7400.000000	70.643	179.9691
7500.000000	70.139	-179.1676
7620.000000	69.439	-177.2324
7750.000000	68.615	-173.0737
7880.000000	67.964	-166.2883
8000.000000	67.844	-158.5154
8120.000000	68.342	-151.1470
8250.000000	69.370	-145.7889
8380.000000	70.515	-144.4695
8500.000000	71.399	-146.9338
8620.000000	71.961	-152.1797
8750.000000	72.126	-159.4797
8850.000000	71.937	-165.0731
9000.000000	71.221	-171.7315
9120.000000	70.388	-174.7734
9250.000000	69.379	-175.6276
9380.000000	68.420	-174.4160
9500.000000	67.700	-172.2061
9620.000000	67.184	-169.6758
9750.000000	66.834	-167.1919
9880.000000	66.632	-165.3334
10000.000000	66.516	-164.2736
10150.000000	66.401	-163.8445
10300.000000	66.262	-164.3813
10440.000000	66.051	-165.6407
10600.000000	65.643	-167.5473
10750.000000	65.049	-168.9971
10900.000000	64.252	-169.0918
11060.000000	63.289	-166.7592
11200.000000	62.567	-162.7857
11380.000000	62.109	-157.1752
11500.000000	62.058	-154.5579
11720.000000	61.971	-152.5173
11800.000000	61.863	-152.0754
12060.000000	61.345	-149.0960
12200.000000	61.151	-146.2474
12410.000000	61.245	-141.4507
12500.000000	61.444	-139.6840
12650.000000	61.938	-137.7065
12800.000000	62.544	-137.3553
13150.000000	63.801	-143.9848
13200.000000	63.912	-145.7142
13400.000000	64.099	-153.7742
13600.000000	63.881	-162.3494
13800.000000	63.348	-170.1995
14000.000000	62.612	-176.8713
14300.000000	61.383	175.6223
14500.000000	60.818	171.3477
14750.000000	60.763	162.1166
15000.000000	61.041	143.0730
15250.000000	61.091	112.0878
15500.000000	60.766	70.2520
15750.000000	60.145	22.5897
16000.000000	59.515	-21.9645
16250.000000	59.445	-56.6588
16500.000000	60.285	-82.1285
16750.000000	61.616	-103.7623
17000.000000	62.810	-125.9248
17250.000000	63.549	-149.8185
17500.000000	63.726	-174.7358
17750.000000	63.290	161.0054
18000.000000	62.234	139.9602
18250.000000	60.688	124.5630
18500.000000	59.088	115.0314
18750.000000	58.245	108.0388
19000.000000	58.576	98.1947
19250.000000	59.447	81.8827
19500.000000	60.140	60.1100
19750.000000	60.435	38.4480
