* Measurement data measured by REW V5.20.13
* Source: EXCL: Headset (USB-C to 3.5mm Headphone Jack Adapter), no input selected, 0, volume: 0.260
* Format: 256k Log Swept Sine, 1 sweep at -12.0 dBFS with no timing reference
* Dated: Sep 25, 2023 11:55:52 AM
* REW Settings:
*  C-weighting compensation: Off
*  Target level: 75.0 dB
* Note: 
* Measurement: HD6XX R
* Smoothing: 1/12 octave
* Frequency Step: 1/48 octave
* Start Frequency: 20.000 Hz
*
* Freq(Hz)	SPL(dB)	Phase(degrees)
20.000000	62.314	158.3972
20.299999	62.583	157.2923
20.600000	62.879	156.3082
20.900000	63.202	155.2516
21.200001	63.527	153.9568
21.400000	63.730	152.9264
21.799999	64.065	150.6124
22.000000	64.191	149.4456
22.400000	64.370	147.3744
22.700001	64.473	146.2396
23.000000	64.584	145.4657
23.299999	64.727	144.9188
23.600000	64.906	144.3961
24.000000	65.166	143.4495
24.299999	65.342	142.5349
24.700001	65.521	141.2885
25.000000	65.629	140.5809
25.400000	65.796	140.1088
25.799999	66.062	139.9265
26.200001	66.436	139.4122
26.500000	66.742	138.4641
26.900000	67.098	136.3605
27.200001	67.281	134.3416
27.600000	67.398	131.6211
28.000000	67.403	129.4275
28.500000	67.373	127.8347
29.000000	67.434	127.1214
29.500000	67.608	126.5369
30.000000	67.830	125.6648
30.400000	68.009	124.7974
30.700001	68.141	124.0981
31.100000	68.315	123.1044
31.500000	68.480	121.9984
32.000000	68.651	120.4721
32.500000	68.766	118.9883
33.000000	68.849	117.8137
33.500000	68.950	116.9697
34.000000	69.096	116.1945
34.500000	69.268	115.2250
35.000000	69.432	114.0235
35.500000	69.573	112.7356
36.000000	69.700	111.5050
36.500000	69.829	110.3624
37.000000	69.966	109.2634
37.500000	70.108	108.1716
38.200001	70.304	106.6614
38.700001	70.437	105.6224
39.500000	70.634	104.0871
40.000000	70.750	103.2268
40.599998	70.888	102.2751
41.200001	71.027	101.3400
41.799999	71.162	100.3369
42.500000	71.298	99.0332
43.099998	71.383	97.8694
43.700001	71.442	96.8152
44.400002	71.512	95.9030
45.000000	71.619	95.3596
45.500000	71.759	94.8915
46.200001	72.007	93.8849
46.799999	72.216	92.5921
47.500000	72.407	90.8039
48.200001	72.538	89.0601
48.700001	72.606	87.9630
49.400002	72.689	86.6888
50.000000	72.769	85.7833
50.799999	72.898	84.5580
51.500000	72.994	83.3167
52.200001	73.047	82.1821
53.000000	73.113	81.3936
53.799999	73.263	80.8455
54.500000	73.430	80.1066
55.200001	73.565	79.1795
56.000000	73.666	78.3302
57.000000	73.764	77.8842
58.000000	73.890	78.1485
59.000000	74.163	78.4785
60.000000	74.463	76.9654
60.799999	74.484	74.4860
61.500000	74.321	72.5067
62.200001	74.094	71.2229
63.000000	73.891	70.3394
64.000000	73.785	69.3531
65.000000	73.806	68.1288
66.000000	73.894	66.7342
67.000000	74.012	65.3678
68.000000	74.140	64.0881
69.000000	74.254	62.8265
70.000000	74.320	61.5492
71.000000	74.320	60.3754
72.000000	74.272	59.4838
73.000000	74.215	58.9307
74.000000	74.187	58.6228
75.000000	74.203	58.4129
76.199997	74.279	58.1198
77.500000	74.407	57.5966
78.800003	74.543	56.7635
80.000000	74.652	55.8160
81.199997	74.756	54.8253
82.500000	74.871	53.6960
83.800003	74.984	52.7084
85.000000	75.129	52.0862
86.199997	75.312	51.3261
87.500000	75.439	50.2602
88.500000	75.463	49.7093
90.000000	75.483	49.4948
91.199997	75.522	49.3148
92.500000	75.566	48.7124
93.800003	75.588	47.6327
95.000000	75.579	46.4398
96.199997	75.566	45.4000
97.500000	75.589	44.5311
98.800003	75.641	43.7946
100.000000	75.680	43.2335
101.500000	75.699	42.7260
103.000000	75.703	42.2996
104.400002	75.726	41.7611
106.000000	75.792	40.6705
107.500000	75.849	39.3165
109.000000	75.898	38.1772
110.599998	75.972	37.3055
112.000000	76.038	36.6079
113.800003	76.087	35.6528
115.000000	76.105	34.9944
117.199997	76.151	33.7570
118.000000	76.174	33.3050
120.599998	76.244	32.0158
122.000000	76.267	31.4968
124.099998	76.287	30.8015
125.000000	76.292	30.4823
126.500000	76.302	29.8987
128.000000	76.315	29.2842
131.500000	76.351	27.9067
132.000000	76.353	27.7159
134.000000	76.347	26.9449
136.000000	76.328	26.1049
138.000000	76.307	25.1460
140.000000	76.288	24.1586
143.000000	76.283	22.9003
145.000000	76.281	22.3230
147.500000	76.272	21.8734
150.000000	76.253	21.3211
152.500000	76.211	20.4463
155.000000	76.162	19.4572
157.500000	76.124	18.5115
160.000000	76.092	17.6041
162.500000	76.064	16.7499
165.000000	76.048	16.0032
167.500000	76.028	15.3324
170.000000	75.990	14.6602
172.500000	75.942	13.9340
175.000000	75.897	13.1678
177.500000	75.852	12.3955
180.000000	75.788	11.6763
182.500000	75.702	11.1587
185.000000	75.617	11.0137
187.500000	75.562	11.2638
190.000000	75.546	11.7208
192.500000	75.558	12.0563
195.000000	75.573	11.9971
197.500000	75.572	11.5596
200.000000	75.562	10.9461
203.000000	75.553	10.1902
206.000000	75.546	9.5306
209.000000	75.536	8.9910
212.000000	75.514	8.5548
214.000000	75.490	8.3029
218.000000	75.434	7.8394
220.000000	75.416	7.6259
224.000000	75.408	7.2313
227.000000	75.403	6.9290
230.000000	75.382	6.5654
233.000000	75.344	6.1109
236.000000	75.293	5.6101
240.000000	75.235	5.0735
243.000000	75.216	4.8489
247.000000	75.204	4.6498
250.000000	75.187	4.4853
254.000000	75.154	4.2336
258.000000	75.121	3.9979
262.000000	75.089	3.7816
265.000000	75.057	3.5890
269.000000	75.001	3.2673
272.000000	74.952	3.0162
276.000000	74.885	2.7322
280.000000	74.824	2.5191
285.000000	74.771	2.3652
290.000000	74.750	2.3353
295.000000	74.763	2.3238
300.000000	74.771	2.4530
304.000000	74.748	2.7048
307.000000	74.725	2.8936
311.000000	74.704	3.0665
315.000000	74.691	3.1320
320.000000	74.678	3.1001
325.000000	74.669	3.0073
330.000000	74.663	2.8826
335.000000	74.667	2.7370
340.000000	74.676	2.6034
345.000000	74.679	2.5126
350.000000	74.673	2.4233
355.000000	74.664	2.2845
360.000000	74.649	2.1094
365.000000	74.627	1.9355
370.000000	74.615	1.7871
375.000000	74.622	1.6680
382.000000	74.643	1.5918
387.000000	74.651	1.6262
395.000000	74.656	1.5785
400.000000	74.652	1.3969
406.000000	74.642	1.1523
412.000000	74.626	0.9411
418.000000	74.605	0.7222
425.000000	74.573	0.4722
431.000000	74.548	0.3270
437.000000	74.529	0.3093
444.000000	74.496	0.4861
450.000000	74.461	0.7592
455.000000	74.438	1.0278
462.000000	74.419	1.3954
468.000000	74.420	1.6376
475.000000	74.429	1.7814
482.000000	74.438	1.7979
487.000000	74.444	1.7767
494.000000	74.454	1.7352
500.000000	74.458	1.6953
508.000000	74.461	1.6713
515.000000	74.466	1.6940
522.000000	74.467	1.7341
530.000000	74.466	1.7965
538.000000	74.475	1.8755
545.000000	74.493	1.9092
552.000000	74.515	1.8932
560.000000	74.532	1.8280
570.000000	74.536	1.7163
580.000000	74.534	1.6382
590.000000	74.524	1.6628
600.000000	74.515	1.7863
608.000000	74.517	1.8995
615.000000	74.526	1.9735
622.000000	74.536	2.0311
630.000000	74.544	2.0889
640.000000	74.548	2.1299
650.000000	74.557	2.1276
660.000000	74.566	2.1139
670.000000	74.566	2.1258
680.000000	74.561	2.2065
690.000000	74.564	2.3531
700.000000	74.581	2.5039
710.000000	74.606	2.5909
720.000000	74.629	2.5859
730.000000	74.644	2.5018
740.000000	74.651	2.3643
750.000000	74.647	2.2149
762.000000	74.625	2.0629
775.000000	74.583	1.9672
788.000000	74.529	2.0073
800.000000	74.469	2.1688
812.000000	74.396	2.4601
825.000000	74.309	3.0002
838.000000	74.235	3.8416
850.000000	74.207	4.8343
862.000000	74.229	5.8793
875.000000	74.298	6.9150
885.000000	74.373	7.6126
900.000000	74.514	8.5089
912.000000	74.639	9.0547
925.000000	74.770	9.4303
938.000000	74.886	9.6169
950.000000	74.978	9.6809
962.000000	75.059	9.7002
975.000000	75.137	9.7303
988.000000	75.209	9.7899
1000.000000	75.271	9.8484
1015.000000	75.344	9.9136
1030.000000	75.415	9.9972
1044.000000	75.475	10.0836
1060.000000	75.531	10.1943
1075.000000	75.577	10.3655
1090.000000	75.627	10.6438
1106.000000	75.698	11.0291
1120.000000	75.780	11.3464
1138.000000	75.907	11.6122
1150.000000	75.996	11.6979
1172.000000	76.150	11.7393
1180.000000	76.204	11.7300
1206.000000	76.375	11.5421
1220.000000	76.464	11.3471
1241.000000	76.584	11.0464
1250.000000	76.630	10.9175
1265.000000	76.699	10.6918
1280.000000	76.756	10.4735
1315.000000	76.875	10.1290
1320.000000	76.894	10.0841
1340.000000	76.974	9.8303
1360.000000	77.045	9.4440
1380.000000	77.091	9.0372
1400.000000	77.117	8.7479
1430.000000	77.159	8.4768
1450.000000	77.186	8.2894
1475.000000	77.210	8.0814
1500.000000	77.233	7.9760
1525.000000	77.264	7.8859
1550.000000	77.286	7.7280
1575.000000	77.281	7.6022
1600.000000	77.262	7.6294
1625.000000	77.241	7.7553
1650.000000	77.209	7.9790
1675.000000	77.169	8.4232
1700.000000	77.143	9.1203
1725.000000	77.154	9.9526
1750.000000	77.198	10.7380
1775.000000	77.245	11.4217
1800.000000	77.283	12.1787
1825.000000	77.333	13.1029
1850.000000	77.414	14.1276
1875.000000	77.535	15.1138
1900.000000	77.684	15.9456
1925.000000	77.842	16.6422
1950.000000	78.006	17.2458
1975.000000	78.174	17.7424
2000.000000	78.341	18.0956
2030.000000	78.526	18.3640
2060.000000	78.693	18.6106
2090.000000	78.862	18.8521
2120.000000	79.021	19.0013
2140.000000	79.113	19.0815
2180.000000	79.270	19.4181
2200.000000	79.349	19.7039
2240.000000	79.518	20.4315
2270.000000	79.661	21.1627
2300.000000	79.846	22.0133
2330.000000	80.067	22.7499
2360.000000	80.290	23.3391
2400.000000	80.593	24.1849
2430.000000	80.855	24.8954
2470.000000	81.261	25.7109
2500.000000	81.595	26.0999
2540.000000	82.059	26.2921
2580.000000	82.533	26.1331
2620.000000	83.004	25.6318
2650.000000	83.354	25.0783
2690.000000	83.819	24.1031
2720.000000	84.162	23.1588
2760.000000	84.593	21.6439
2800.000000	84.996	19.9549
2850.000000	85.480	17.6544
2900.000000	85.947	15.0289
2950.000000	86.375	11.9721
3000.000000	86.736	8.5723
3040.000000	86.978	5.7483
3070.000000	87.139	3.5917
3110.000000	87.328	0.6343
3150.000000	87.480	-2.4205
3200.000000	87.614	-6.3020
3250.000000	87.691	-10.2158
3300.000000	87.705	-14.1212
3350.000000	87.658	-17.9284
3400.000000	87.555	-21.5932
3450.000000	87.402	-25.0745
3500.000000	87.205	-28.3413
3550.000000	86.967	-31.3700
3600.000000	86.696	-34.1230
3650.000000	86.401	-36.6133
3700.000000	86.089	-38.8961
3750.000000	85.753	-40.9869
3820.000000	85.230	-43.4890
3870.000000	84.824	-44.8390
3950.000000	84.156	-46.1860
4000.000000	83.744	-46.5731
4060.000000	83.265	-46.6348
4120.000000	82.804	-46.2641
4180.000000	82.369	-45.4299
4250.000000	81.920	-43.9165
4310.000000	81.603	-42.2219
4370.000000	81.369	-40.2705
4440.000000	81.216	-37.9250
4500.000000	81.177	-36.0679
4550.000000	81.196	-34.7067
4620.000000	81.284	-33.1522
4680.000000	81.398	-32.1822
4750.000000	81.553	-31.4858
4820.000000	81.713	-31.2413
4870.000000	81.821	-31.3187
4940.000000	81.950	-31.7163
5000.000000	82.034	-32.2300
5080.000000	82.114	-33.0067
5150.000000	82.175	-33.7275
5220.000000	82.235	-34.5436
5300.000000	82.295	-35.6434
5380.000000	82.334	-36.8586
5450.000000	82.359	-37.9308
5520.000000	82.395	-39.0043
5600.000000	82.480	-40.4000
5700.000000	82.658	-42.9573
5800.000000	82.828	-47.1260
5900.000000	82.821	-53.0842
6000.000000	82.489	-59.9873
6080.000000	81.958	-65.2382
6150.000000	81.316	-69.0653
6220.000000	80.547	-71.9062
6300.000000	79.572	-73.8796
6400.000000	78.295	-74.6296
6500.000000	77.034	-73.8601
6600.000000	75.828	-71.9166
6700.000000	74.684	-68.9504
6800.000000	73.608	-64.9900
6900.000000	72.616	-60.0308
7000.000000	71.753	-54.1362
7100.000000	71.073	-47.5361
7200.000000	70.620	-40.5816
7300.000000	70.418	-33.6888
7400.000000	70.456	-27.3204
7500.000000	70.680	-21.8942
7620.000000	71.082	-16.9623
7750.000000	71.548	-13.5620
7880.000000	71.955	-11.8978
8000.000000	72.226	-11.6424
8120.000000	72.353	-12.3514
8250.000000	72.280	-13.6901
8380.000000	71.967	-14.7452
8500.000000	71.511	-14.6449
8620.000000	71.014	-13.1644
8750.000000	70.603	-10.4727
8850.000000	70.448	-8.3810
9000.000000	70.427	-6.6346
9120.000000	70.431	-7.1173
9250.000000	70.257	-9.3093
9380.000000	69.769	-12.1474
9500.000000	69.008	-14.1188
9620.000000	67.971	-14.4648
9750.000000	66.594	-12.1361
9880.000000	65.041	-6.2645
10000.000000	63.592	2.6389
10150.000000	62.174	17.8884
10300.000000	61.862	35.4010
10440.000000	62.779	50.7717
10600.000000	64.668	64.2477
10750.000000	66.641	71.4066
10900.000000	68.430	72.5841
11060.000000	69.837	67.2271
11200.000000	70.438	58.2360
11380.000000	70.194	45.4726
11500.000000	69.433	39.4106
11720.000000	67.185	37.8629
11800.000000	66.238	40.5532
12060.000000	63.787	59.0560
12200.000000	63.723	72.1867
12410.000000	65.399	88.4355
12500.000000	66.345	92.4152
12650.000000	67.788	94.2892
12800.000000	68.871	90.9939
13150.000000	69.670	72.8641
13200.000000	69.582	70.0525
13400.000000	68.740	60.8072
13600.000000	67.214	57.3177
13800.000000	65.282	61.3644
14000.000000	63.509	72.0608
14300.000000	62.931	92.8779
14500.000000	64.109	104.3588
14750.000000	66.233	112.5334
15000.000000	68.255	112.9954
15250.000000	69.786	106.8985
15500.000000	70.803	97.2171
15750.000000	71.459	86.2582
16000.000000	71.864	74.7083
16250.000000	72.070	62.7513
16500.000000	72.158	50.3312
16750.000000	72.188	36.8443
17000.000000	72.143	21.4083
17250.000000	71.922	3.3671
17500.000000	71.358	-17.0215
17750.000000	70.285	-37.9198
18000.000000	68.626	-56.3408
18250.000000	66.456	-69.9550
18500.000000	64.051	-78.8037
18750.000000	61.978	-85.6125
19000.000000	60.957	-94.5179
19250.000000	61.100	-108.7563
19500.000000	61.771	-128.4312
19750.000000	62.398	-149.1874
