* Measurement data measured by REW V5.20.13
* Source: EXCL: Headset (USB-C to 3.5mm Headphone Jack Adapter), no input selected, 0, volume: 0.260
* Format: 256k Log Swept Sine, 1 sweep at -12.0 dBFS with no timing reference
* Dated: Sep 25, 2023 11:56:57 AM
* REW Settings:
*  C-weighting compensation: Off
*  Target level: 75.0 dB
* Note: 
* Measurement: HD6XX L
* Smoothing: 1/12 octave
* Frequency Step: 1/48 octave
* Start Frequency: 20.000 Hz
*
* Freq(Hz)	SPL(dB)	Phase(degrees)
20.000000	62.993	160.1492
20.299999	63.262	158.8434
20.600000	63.512	157.4557
20.900000	63.741	155.9944
21.200001	63.947	154.4698
21.400000	64.068	153.4365
21.799999	64.272	151.4266
22.000000	64.359	150.4942
22.400000	64.516	148.8303
22.700001	64.633	147.7574
23.000000	64.758	146.7881
23.299999	64.893	145.8685
23.600000	65.035	144.9609
24.000000	65.229	143.7603
24.299999	65.377	142.8860
24.700001	65.584	141.7691
25.000000	65.751	140.9447
25.400000	65.992	139.8027
25.799999	66.246	138.5518
26.200001	66.507	137.1669
26.500000	66.703	136.0334
26.900000	66.963	134.3640
27.200001	67.147	132.9653
27.600000	67.358	130.9094
28.000000	67.507	128.7557
28.500000	67.597	126.3325
29.000000	67.629	124.7090
29.500000	67.703	123.9572
30.000000	67.887	123.5544
30.400000	68.095	123.0668
30.700001	68.259	122.4988
31.100000	68.457	121.5168
31.500000	68.622	120.4420
32.000000	68.794	119.1885
32.500000	68.956	118.0799
33.000000	69.119	117.0084
33.500000	69.278	115.9127
34.000000	69.433	114.8242
34.500000	69.595	113.7494
35.000000	69.771	112.6000
35.500000	69.948	111.2939
36.000000	70.109	109.8843
36.500000	70.251	108.5314
37.000000	70.394	107.3405
37.500000	70.559	106.2489
38.200001	70.808	104.5905
38.700001	70.958	103.2644
39.500000	71.106	101.3383
40.000000	71.167	100.4844
40.599998	71.245	99.7403
41.200001	71.335	99.0453
41.799999	71.417	98.2468
42.500000	71.492	97.1772
43.099998	71.539	96.1416
43.700001	71.573	94.9950
44.400002	71.598	93.6529
45.000000	71.633	92.6538
45.500000	71.698	91.9459
46.200001	71.868	91.0087
46.799999	72.076	90.0745
47.500000	72.344	88.6906
48.200001	72.571	87.1129
48.700001	72.690	86.0855
49.400002	72.818	85.0426
50.000000	72.922	84.4524
50.799999	73.052	83.7173
51.500000	73.124	83.0001
52.200001	73.166	82.3495
53.000000	73.244	81.5901
53.799999	73.382	80.3000
54.500000	73.503	78.5414
55.200001	73.591	76.5093
56.000000	73.677	74.4085
57.000000	73.851	72.4796
58.000000	74.163	71.1299
59.000000	74.555	69.3627
60.000000	74.733	66.5447
60.799999	74.587	64.6944
61.500000	74.335	64.1505
62.200001	74.084	64.4075
63.000000	73.867	65.0231
64.000000	73.710	65.6224
65.000000	73.666	65.6429
66.000000	73.700	65.0347
67.000000	73.793	64.0482
68.000000	73.926	62.7661
69.000000	74.040	61.3162
70.000000	74.096	60.0455
71.000000	74.113	59.2264
72.000000	74.135	58.7726
73.000000	74.182	58.3467
74.000000	74.241	57.7028
75.000000	74.290	56.7674
76.199997	74.308	55.3662
77.500000	74.259	53.9166
78.800003	74.184	53.0924
80.000000	74.190	52.9207
81.199997	74.292	52.7678
82.500000	74.425	52.4874
83.800003	74.555	52.4190
85.000000	74.667	52.4376
86.199997	74.733	52.3586
87.500000	74.742	52.2020
88.500000	74.735	52.0458
90.000000	74.793	51.6006
91.199997	74.939	50.6885
92.500000	75.134	49.1306
93.800003	75.319	47.5706
95.000000	75.474	46.4619
96.199997	75.604	45.6640
97.500000	75.710	44.9166
98.800003	75.770	44.0162
100.000000	75.789	43.0211
101.500000	75.806	41.7050
103.000000	75.850	40.4420
104.400002	75.905	39.3937
106.000000	75.930	38.3489
107.500000	75.882	37.5514
109.000000	75.808	36.8641
110.599998	75.772	35.9340
112.000000	75.788	34.8397
113.800003	75.843	33.4637
115.000000	75.887	32.7955
117.199997	75.936	32.0895
118.000000	75.937	31.9409
120.599998	75.929	31.4005
122.000000	75.947	30.8767
124.099998	76.006	29.8193
125.000000	76.033	29.3347
126.500000	76.064	28.5792
128.000000	76.074	27.9269
131.500000	76.066	26.3975
132.000000	76.064	26.1517
134.000000	76.057	25.1976
136.000000	76.059	24.3787
138.000000	76.068	23.6425
140.000000	76.071	22.8710
143.000000	76.040	21.7319
145.000000	76.013	21.1607
147.500000	75.995	20.4687
150.000000	75.969	19.4883
152.500000	75.926	18.3611
155.000000	75.880	17.2828
157.500000	75.825	16.3996
160.000000	75.762	15.8276
162.500000	75.704	15.5421
165.000000	75.649	15.4394
167.500000	75.592	15.4033
170.000000	75.547	15.3024
172.500000	75.530	15.0192
175.000000	75.537	14.4906
177.500000	75.549	13.8486
180.000000	75.555	13.2145
182.500000	75.547	12.6218
185.000000	75.525	12.0645
187.500000	75.498	11.5569
190.000000	75.474	11.1813
192.500000	75.455	10.9484
195.000000	75.431	10.7385
197.500000	75.392	10.4891
200.000000	75.352	10.2299
203.000000	75.325	9.9448
206.000000	75.325	9.6675
209.000000	75.338	9.3252
212.000000	75.348	8.9128
214.000000	75.349	8.6117
218.000000	75.336	7.9592
220.000000	75.327	7.6251
224.000000	75.298	7.0206
227.000000	75.266	6.6432
230.000000	75.233	6.2830
233.000000	75.202	5.9100
236.000000	75.170	5.5410
240.000000	75.120	5.1485
243.000000	75.079	4.9828
247.000000	75.030	4.8403
250.000000	75.000	4.7206
254.000000	74.965	4.5292
258.000000	74.934	4.3261
262.000000	74.906	4.1807
265.000000	74.895	4.1097
269.000000	74.895	3.9927
272.000000	74.896	3.8557
276.000000	74.884	3.6267
280.000000	74.860	3.3928
285.000000	74.833	3.1699
290.000000	74.825	3.0664
295.000000	74.825	3.0436
300.000000	74.814	2.9420
304.000000	74.792	2.7449
307.000000	74.769	2.5600
311.000000	74.732	2.3195
315.000000	74.697	2.1076
320.000000	74.666	1.8814
325.000000	74.649	1.7319
330.000000	74.635	1.6536
335.000000	74.618	1.6099
340.000000	74.600	1.5541
345.000000	74.587	1.4670
350.000000	74.581	1.4025
355.000000	74.577	1.3905
360.000000	74.565	1.3740
365.000000	74.547	1.2938
370.000000	74.537	1.1729
375.000000	74.535	1.0576
382.000000	74.532	0.9471
387.000000	74.527	0.9186
395.000000	74.505	0.9189
400.000000	74.494	0.8932
406.000000	74.487	0.8025
412.000000	74.470	0.7468
418.000000	74.440	0.7874
425.000000	74.406	0.7700
431.000000	74.379	0.6271
437.000000	74.361	0.5290
444.000000	74.365	0.5256
450.000000	74.388	0.5128
455.000000	74.411	0.4890
462.000000	74.426	0.5072
468.000000	74.421	0.6086
475.000000	74.409	0.7468
482.000000	74.401	0.8138
487.000000	74.397	0.8219
494.000000	74.389	0.8263
500.000000	74.380	0.8572
508.000000	74.363	0.9223
515.000000	74.353	0.9724
522.000000	74.361	1.0122
530.000000	74.389	1.0516
538.000000	74.413	1.1027
545.000000	74.422	1.1455
552.000000	74.427	1.1937
560.000000	74.442	1.2859
570.000000	74.468	1.4254
580.000000	74.485	1.5172
590.000000	74.499	1.5270
600.000000	74.517	1.4879
608.000000	74.534	1.4781
615.000000	74.550	1.4742
622.000000	74.568	1.4514
630.000000	74.585	1.4050
640.000000	74.602	1.3643
650.000000	74.624	1.3638
660.000000	74.654	1.3351
670.000000	74.683	1.2239
680.000000	74.699	1.0758
690.000000	74.702	0.9404
700.000000	74.702	0.8425
710.000000	74.706	0.7781
720.000000	74.714	0.7117
730.000000	74.723	0.6527
740.000000	74.732	0.6191
750.000000	74.739	0.5751
762.000000	74.743	0.4536
775.000000	74.738	0.2056
788.000000	74.698	-0.0927
800.000000	74.618	-0.2661
812.000000	74.505	-0.2140
825.000000	74.371	0.1789
838.000000	74.254	0.9206
850.000000	74.185	1.8142
862.000000	74.157	2.7700
875.000000	74.165	3.7922
885.000000	74.193	4.5474
900.000000	74.264	5.5868
912.000000	74.337	6.3251
925.000000	74.424	7.0499
938.000000	74.517	7.7208
950.000000	74.607	8.2966
962.000000	74.702	8.8306
975.000000	74.814	9.3671
988.000000	74.943	9.8532
1000.000000	75.076	10.2211
1015.000000	75.252	10.4946
1030.000000	75.423	10.5340
1044.000000	75.568	10.4034
1060.000000	75.710	10.1353
1075.000000	75.822	9.8432
1090.000000	75.919	9.5483
1106.000000	76.009	9.2174
1120.000000	76.079	8.9109
1138.000000	76.163	8.5508
1150.000000	76.215	8.3456
1172.000000	76.301	7.9749
1180.000000	76.329	7.8323
1206.000000	76.408	7.3555
1220.000000	76.442	7.0977
1241.000000	76.478	6.7501
1250.000000	76.489	6.6328
1265.000000	76.503	6.4958
1280.000000	76.521	6.4229
1315.000000	76.580	6.2546
1320.000000	76.585	6.2282
1340.000000	76.597	6.2083
1360.000000	76.613	6.3488
1380.000000	76.654	6.5212
1400.000000	76.719	6.6082
1430.000000	76.813	6.4702
1450.000000	76.847	6.3109
1475.000000	76.871	6.2249
1500.000000	76.894	6.2244
1525.000000	76.914	6.2548
1550.000000	76.932	6.3061
1575.000000	76.947	6.4076
1600.000000	76.959	6.5977
1625.000000	76.967	6.8501
1650.000000	76.968	7.1841
1675.000000	76.971	7.6442
1700.000000	76.995	8.2422
1725.000000	77.061	8.8675
1750.000000	77.156	9.2953
1775.000000	77.235	9.4429
1800.000000	77.263	9.5372
1825.000000	77.255	9.8692
1850.000000	77.248	10.5171
1875.000000	77.270	11.3457
1900.000000	77.318	12.2009
1925.000000	77.377	13.0775
1950.000000	77.451	14.0892
1975.000000	77.567	15.2523
2000.000000	77.740	16.3354
2030.000000	77.985	17.1597
2060.000000	78.201	17.4957
2090.000000	78.368	17.6991
2120.000000	78.509	17.9906
2140.000000	78.598	18.2405
2180.000000	78.760	18.8945
2200.000000	78.839	19.3775
2240.000000	79.042	20.6522
2270.000000	79.244	21.5881
2300.000000	79.459	22.4214
2330.000000	79.692	23.3156
2360.000000	79.972	24.2474
2400.000000	80.415	25.1725
2430.000000	80.758	25.4777
2470.000000	81.196	25.5361
2500.000000	81.515	25.4299
2540.000000	81.935	25.1423
2580.000000	82.353	24.7385
2620.000000	82.782	24.1867
2650.000000	83.105	23.6003
2690.000000	83.523	22.5944
2720.000000	83.831	21.7302
2760.000000	84.239	20.4280
2800.000000	84.637	18.8939
2850.000000	85.105	16.6635
2900.000000	85.540	14.1902
2950.000000	85.954	11.4775
3000.000000	86.339	8.4596
3040.000000	86.620	5.8206
3070.000000	86.812	3.6947
3110.000000	87.033	0.6663
3150.000000	87.204	-2.5262
3200.000000	87.345	-6.6174
3250.000000	87.408	-10.7188
3300.000000	87.399	-14.7375
3350.000000	87.326	-18.6229
3400.000000	87.189	-22.3127
3450.000000	86.996	-25.7071
3500.000000	86.764	-28.7677
3550.000000	86.507	-31.5260
3600.000000	86.233	-34.0461
3650.000000	85.938	-36.3734
3700.000000	85.619	-38.4671
3750.000000	85.282	-40.2894
3820.000000	84.791	-42.4272
3870.000000	84.426	-43.6818
3950.000000	83.816	-45.1169
4000.000000	83.430	-45.6249
4060.000000	82.972	-45.8860
4120.000000	82.519	-45.7794
4180.000000	82.073	-45.2548
4250.000000	81.571	-43.9969
4310.000000	81.186	-42.3053
4370.000000	80.886	-40.1107
4440.000000	80.692	-37.2465
4500.000000	80.667	-34.9383
4550.000000	80.723	-33.3398
4620.000000	80.867	-31.7474
4680.000000	81.008	-30.9626
4750.000000	81.158	-30.5760
4820.000000	81.280	-30.5662
4870.000000	81.349	-30.7101
4940.000000	81.422	-31.0530
5000.000000	81.466	-31.4183
5080.000000	81.513	-31.9758
5150.000000	81.547	-32.5807
5220.000000	81.567	-33.3077
5300.000000	81.563	-34.2141
5380.000000	81.539	-35.1055
5450.000000	81.515	-35.8590
5520.000000	81.503	-36.6300
5600.000000	81.521	-37.6592
5700.000000	81.588	-39.5634
5800.000000	81.641	-42.6102
5900.000000	81.569	-46.9035
6000.000000	81.266	-51.9884
6080.000000	80.812	-55.9927
6150.000000	80.260	-58.9514
6220.000000	79.587	-61.0748
6300.000000	78.722	-62.3021
6400.000000	77.592	-62.1411
6500.000000	76.502	-60.5323
6600.000000	75.500	-57.9318
6700.000000	74.591	-54.5983
6800.000000	73.769	-50.6478
6900.000000	73.031	-46.0955
7000.000000	72.387	-40.8971
7100.000000	71.872	-35.0732
7200.000000	71.534	-28.7990
7300.000000	71.410	-22.3936
7400.000000	71.511	-16.2330
7500.000000	71.824	-10.7115
7620.000000	72.408	-5.4300
7750.000000	73.171	-1.7684
7880.000000	73.951	-0.3687
8000.000000	74.607	-1.0396
8120.000000	75.133	-3.5106
8250.000000	75.484	-8.0027
8380.000000	75.535	-13.8589
8500.000000	75.282	-19.7526
8620.000000	74.743	-25.3964
8750.000000	73.865	-30.5856
8850.000000	73.003	-33.6088
9000.000000	71.446	-36.1057
9120.000000	69.999	-35.9191
9250.000000	68.263	-32.9833
9380.000000	66.421	-26.8011
9500.000000	64.748	-18.2982
9620.000000	63.261	-7.6792
9750.000000	62.036	5.3458
9880.000000	61.334	19.1628
10000.000000	61.204	32.0543
10150.000000	61.731	47.5151
10300.000000	62.886	61.2758
10440.000000	64.352	71.9275
10600.000000	66.300	81.0450
10750.000000	68.223	86.1222
10900.000000	70.032	87.0517
11060.000000	71.574	82.8052
11200.000000	72.404	75.2434
11380.000000	72.638	63.5667
11500.000000	72.322	56.9290
11720.000000	71.136	50.4438
11800.000000	70.633	49.9623
12060.000000	69.313	53.1411
12200.000000	69.041	56.2418
12410.000000	69.304	59.6514
12500.000000	69.573	59.8599
12650.000000	70.029	57.9047
12800.000000	70.304	53.2139
13150.000000	69.608	37.9592
13200.000000	69.343	36.0957
13400.000000	67.955	31.0923
13600.000000	66.251	30.2810
13800.000000	64.589	32.0231
14000.000000	63.237	33.2020
14300.000000	61.610	27.1260
14500.000000	60.405	13.0834
14750.000000	58.837	-23.5381
15000.000000	58.929	-83.1351
15250.000000	61.428	-146.5454
15500.000000	64.160	166.9749
15750.000000	66.266	136.7272
16000.000000	67.691	113.5580
16250.000000	68.369	91.7949
16500.000000	68.222	71.0391
16750.000000	67.299	53.7559
17000.000000	65.835	41.7638
17250.000000	64.191	34.6436
17500.000000	62.762	30.7966
17750.000000	61.963	28.1631
18000.000000	62.046	23.9924
18250.000000	62.795	15.6862
18500.000000	63.786	1.7161
18750.000000	64.707	-18.5494
19000.000000	65.363	-45.0018
19250.000000	65.648	-76.3840
19500.000000	65.554	-109.5917
19750.000000	65.205	-139.0071
