* Measurement data measured by REW V5.20.13
* Source: Frequency Response Averaged data
* Format: Averaged data produced from the rms magnitudes of HD800s Stock Pads L, HD800s Stock Pads L, HD800s Stock Pads L
* Dated: Apr 9, 2024 3:46:17 PM
* REW Settings:
*  C-weighting compensation: Off
*  Target level: 75.0 dB
* Note: Averaged data produced from the rms magnitudes of HD800s Stock Pads L, HD800s Stock Pads L, HD800s Stock Pads L
* Measurement: RMS Avg Stock Pads L
* Smoothing: 1/12 octave
* Frequency Step: 1/48 octave
* Start Frequency: 20.000 Hz
*
* Freq(Hz)	SPL(dB)
20.000000	65.850
20.299999	66.001
20.600000	66.172
20.900000	66.369
21.200001	66.581
21.400000	66.720
21.799999	66.985
22.000000	67.107
22.400000	67.337
22.700001	67.510
23.000000	67.692
23.299999	67.878
23.600000	68.053
24.000000	68.247
24.299999	68.352
24.700001	68.444
25.000000	68.499
25.400000	68.594
25.799999	68.740
26.200001	68.930
26.500000	69.081
26.900000	69.269
27.200001	69.388
27.600000	69.520
28.000000	69.635
28.500000	69.773
29.000000	69.906
29.500000	70.031
30.000000	70.158
30.400000	70.270
30.700001	70.361
31.100000	70.483
31.500000	70.594
32.000000	70.703
32.500000	70.786
33.000000	70.865
33.500000	70.956
34.000000	71.059
34.500000	71.162
35.000000	71.255
35.500000	71.340
36.000000	71.420
36.500000	71.500
37.000000	71.580
37.500000	71.661
38.200001	71.781
38.700001	71.870
39.500000	72.002
40.000000	72.073
40.599998	72.145
41.200001	72.213
41.799999	72.282
42.500000	72.366
43.099998	72.436
43.700001	72.498
44.400002	72.557
45.000000	72.598
45.500000	72.627
46.200001	72.661
46.799999	72.683
47.500000	72.693
48.200001	72.685
48.700001	72.674
49.400002	72.666
50.000000	72.674
50.799999	72.708
51.500000	72.752
52.200001	72.811
53.000000	72.894
53.799999	72.977
54.500000	73.043
55.200001	73.106
56.000000	73.165
57.000000	73.203
58.000000	73.221
59.000000	73.236
60.000000	73.236
60.799999	73.229
61.500000	73.226
62.200001	73.230
63.000000	73.241
64.000000	73.258
65.000000	73.270
66.000000	73.273
67.000000	73.267
68.000000	73.253
69.000000	73.234
70.000000	73.217
71.000000	73.212
72.000000	73.227
73.000000	73.265
74.000000	73.324
75.000000	73.397
76.199997	73.497
77.500000	73.619
78.800003	73.742
80.000000	73.846
81.199997	73.940
82.500000	74.033
83.800003	74.114
85.000000	74.180
86.199997	74.239
87.500000	74.294
88.500000	74.331
90.000000	74.383
91.199997	74.422
92.500000	74.465
93.800003	74.506
95.000000	74.543
96.199997	74.579
97.500000	74.616
98.800003	74.653
100.000000	74.686
101.500000	74.724
103.000000	74.757
104.400002	74.787
106.000000	74.820
107.500000	74.842
109.000000	74.844
110.599998	74.835
112.000000	74.829
113.800003	74.829
115.000000	74.834
117.199997	74.853
118.000000	74.862
120.599998	74.892
122.000000	74.911
124.099998	74.951
125.000000	74.971
126.500000	75.004
128.000000	75.034
131.500000	75.079
132.000000	75.084
134.000000	75.100
136.000000	75.107
138.000000	75.108
140.000000	75.112
143.000000	75.130
145.000000	75.146
147.500000	75.168
150.000000	75.192
152.500000	75.214
155.000000	75.234
157.500000	75.245
160.000000	75.250
162.500000	75.259
165.000000	75.270
167.500000	75.281
170.000000	75.290
172.500000	75.292
175.000000	75.291
177.500000	75.293
180.000000	75.297
182.500000	75.301
185.000000	75.306
187.500000	75.310
190.000000	75.311
192.500000	75.307
195.000000	75.301
197.500000	75.295
200.000000	75.290
203.000000	75.283
206.000000	75.278
209.000000	75.276
212.000000	75.275
214.000000	75.275
218.000000	75.274
220.000000	75.274
224.000000	75.273
227.000000	75.269
230.000000	75.264
233.000000	75.258
236.000000	75.250
240.000000	75.240
243.000000	75.234
247.000000	75.226
250.000000	75.218
254.000000	75.209
258.000000	75.201
262.000000	75.194
265.000000	75.189
269.000000	75.183
272.000000	75.179
276.000000	75.174
280.000000	75.169
285.000000	75.162
290.000000	75.152
295.000000	75.137
300.000000	75.120
304.000000	75.109
307.000000	75.103
311.000000	75.096
315.000000	75.089
320.000000	75.079
325.000000	75.069
330.000000	75.057
335.000000	75.045
340.000000	75.035
345.000000	75.028
350.000000	75.023
355.000000	75.019
360.000000	75.015
365.000000	75.008
370.000000	74.999
375.000000	74.989
382.000000	74.974
387.000000	74.964
395.000000	74.947
400.000000	74.937
406.000000	74.928
412.000000	74.919
418.000000	74.912
425.000000	74.904
431.000000	74.898
437.000000	74.892
444.000000	74.888
450.000000	74.886
455.000000	74.884
462.000000	74.881
468.000000	74.877
475.000000	74.873
482.000000	74.869
487.000000	74.868
494.000000	74.865
500.000000	74.863
508.000000	74.859
515.000000	74.855
522.000000	74.849
530.000000	74.841
538.000000	74.828
545.000000	74.814
552.000000	74.802
560.000000	74.795
570.000000	74.793
580.000000	74.798
590.000000	74.807
600.000000	74.816
608.000000	74.818
615.000000	74.816
622.000000	74.808
630.000000	74.792
640.000000	74.765
650.000000	74.740
660.000000	74.727
670.000000	74.723
680.000000	74.722
690.000000	74.724
700.000000	74.733
710.000000	74.753
720.000000	74.781
730.000000	74.806
740.000000	74.821
750.000000	74.828
762.000000	74.829
775.000000	74.822
788.000000	74.805
800.000000	74.781
812.000000	74.756
825.000000	74.727
838.000000	74.698
850.000000	74.672
862.000000	74.649
875.000000	74.619
885.000000	74.592
900.000000	74.542
912.000000	74.496
925.000000	74.441
938.000000	74.382
950.000000	74.330
962.000000	74.283
975.000000	74.244
988.000000	74.218
1000.000000	74.201
1015.000000	74.173
1030.000000	74.124
1044.000000	74.056
1060.000000	73.956
1075.000000	73.846
1090.000000	73.734
1106.000000	73.630
1120.000000	73.559
1138.000000	73.487
1150.000000	73.440
1172.000000	73.345
1180.000000	73.311
1206.000000	73.215
1220.000000	73.156
1241.000000	73.030
1250.000000	72.964
1265.000000	72.850
1280.000000	72.741
1315.000000	72.546
1320.000000	72.526
1340.000000	72.467
1360.000000	72.435
1380.000000	72.429
1400.000000	72.453
1430.000000	72.513
1450.000000	72.537
1475.000000	72.551
1500.000000	72.594
1525.000000	72.697
1550.000000	72.849
1575.000000	73.010
1600.000000	73.153
1625.000000	73.272
1650.000000	73.354
1675.000000	73.392
1700.000000	73.408
1725.000000	73.443
1750.000000	73.538
1775.000000	73.689
1800.000000	73.851
1825.000000	73.989
1850.000000	74.111
1875.000000	74.237
1900.000000	74.369
1925.000000	74.501
1950.000000	74.642
1975.000000	74.810
2000.000000	75.016
2030.000000	75.295
2060.000000	75.576
2090.000000	75.831
2120.000000	76.055
2140.000000	76.188
2180.000000	76.426
2200.000000	76.537
2240.000000	76.778
2270.000000	77.013
2300.000000	77.292
2330.000000	77.576
2360.000000	77.828
2400.000000	78.114
2430.000000	78.309
2470.000000	78.572
2500.000000	78.798
2540.000000	79.177
2580.000000	79.623
2620.000000	80.065
2650.000000	80.374
2690.000000	80.778
2720.000000	81.095
2760.000000	81.535
2800.000000	81.956
2850.000000	82.400
2900.000000	82.711
2950.000000	82.852
3000.000000	82.849
3040.000000	82.794
3070.000000	82.739
3110.000000	82.652
3150.000000	82.537
3200.000000	82.349
3250.000000	82.123
3300.000000	81.882
3350.000000	81.618
3400.000000	81.287
3450.000000	80.880
3500.000000	80.443
3550.000000	80.025
3600.000000	79.633
3650.000000	79.270
3700.000000	78.965
3750.000000	78.749
3820.000000	78.583
3870.000000	78.534
3950.000000	78.530
4000.000000	78.564
4060.000000	78.639
4120.000000	78.744
4180.000000	78.855
4250.000000	78.963
4310.000000	79.034
4370.000000	79.106
4440.000000	79.251
4500.000000	79.469
4550.000000	79.712
4620.000000	80.106
4680.000000	80.463
4750.000000	80.869
4820.000000	81.221
4870.000000	81.429
4940.000000	81.683
5000.000000	81.895
5080.000000	82.188
5150.000000	82.434
5220.000000	82.653
5300.000000	82.865
5380.000000	83.033
5450.000000	83.141
5520.000000	83.215
5600.000000	83.259
5700.000000	83.253
5800.000000	83.201
5900.000000	83.136
6000.000000	83.056
6080.000000	82.957
6150.000000	82.829
6220.000000	82.659
6300.000000	82.416
6400.000000	82.046
6500.000000	81.615
6600.000000	81.145
6700.000000	80.677
6800.000000	80.268
6900.000000	79.973
7000.000000	79.838
7100.000000	79.884
7200.000000	80.107
7300.000000	80.477
7400.000000	80.934
7500.000000	81.376
7620.000000	81.694
7750.000000	81.511
7880.000000	80.589
8000.000000	79.105
8120.000000	77.178
8250.000000	74.816
8380.000000	72.364
8500.000000	70.289
8620.000000	69.180
8750.000000	69.960
8850.000000	71.385
9000.000000	73.345
9120.000000	74.284
9250.000000	74.608
9380.000000	74.307
9500.000000	73.589
9620.000000	72.574
9750.000000	71.309
9880.000000	70.101
10000.000000	69.245
10150.000000	68.716
10300.000000	68.756
10440.000000	69.036
10600.000000	69.255
10750.000000	69.181
10900.000000	68.949
11060.000000	68.906
11200.000000	69.262
11380.000000	70.061
11500.000000	70.630
11720.000000	71.597
11800.000000	71.908
12060.000000	72.709
12200.000000	73.018
12410.000000	73.458
12500.000000	73.699
12650.000000	74.239
12800.000000	74.942
13150.000000	76.517
13200.000000	76.665
13400.000000	76.977
13600.000000	76.851
13800.000000	76.382
14000.000000	75.733
14300.000000	74.824
14500.000000	74.375
14750.000000	73.825
15000.000000	72.941
15250.000000	71.482
15500.000000	69.690
15750.000000	68.596
16000.000000	68.901
16250.000000	69.840
16500.000000	70.746
16750.000000	71.479
17000.000000	71.978
17250.000000	72.087
17500.000000	71.649
17750.000000	70.684
18000.000000	69.419
18250.000000	68.117
18500.000000	66.884
18750.000000	65.656
19000.000000	64.389
19250.000000	63.221
19500.000000	62.413
19750.000000	62.052
