* Measurement data measured by REW V5.20.13
* Source: Frequency Response Averaged data
* Format: Averaged data produced from the rms magnitudes of HD800s Dkni EHY R, HD800s Dkni EHY R, HD800s Dkni EHY R
* Dated: Apr 9, 2024 4:13:44 PM
* REW Settings:
*  C-weighting compensation: Off
*  Target level: 75.0 dB
* Note: Averaged data produced from the rms magnitudes of HD800s Dkni EHY R, HD800s Dkni EHY R, HD800s Dkni EHY R
* Measurement: RMS Avg Dkni EHY R
* Smoothing: 1/12 octave
* Frequency Step: 1/48 octave
* Start Frequency: 20.000 Hz
*
* Freq(Hz)	SPL(dB)
20.000000	56.670
20.299999	56.932
20.600000	57.149
20.900000	57.319
21.200001	57.450
21.400000	57.525
21.799999	57.669
22.000000	57.752
22.400000	57.967
22.700001	58.175
23.000000	58.414
23.299999	58.660
23.600000	58.894
24.000000	59.163
24.299999	59.326
24.700001	59.506
25.000000	59.631
25.400000	59.807
25.799999	60.000
26.200001	60.198
26.500000	60.339
26.900000	60.508
27.200001	60.626
27.600000	60.791
28.000000	60.986
28.500000	61.280
29.000000	61.599
29.500000	61.893
30.000000	62.134
30.400000	62.291
30.700001	62.396
31.100000	62.530
31.500000	62.662
32.000000	62.825
32.500000	62.983
33.000000	63.131
33.500000	63.273
34.000000	63.414
34.500000	63.556
35.000000	63.693
35.500000	63.817
36.000000	63.924
36.500000	64.015
37.000000	64.099
37.500000	64.186
38.200001	64.323
38.700001	64.433
39.500000	64.624
40.000000	64.749
40.599998	64.903
41.200001	65.059
41.799999	65.210
42.500000	65.371
43.099998	65.494
43.700001	65.604
44.400002	65.720
45.000000	65.816
45.500000	65.895
46.200001	66.008
46.799999	66.109
47.500000	66.230
48.200001	66.346
48.700001	66.422
49.400002	66.516
50.000000	66.587
50.799999	66.679
51.500000	66.763
52.200001	66.850
53.000000	66.953
53.799999	67.059
54.500000	67.153
55.200001	67.246
56.000000	67.349
57.000000	67.466
58.000000	67.572
59.000000	67.671
60.000000	67.771
60.799999	67.852
61.500000	67.922
62.200001	67.990
63.000000	68.063
64.000000	68.146
65.000000	68.223
66.000000	68.299
67.000000	68.376
68.000000	68.454
69.000000	68.531
70.000000	68.606
71.000000	68.678
72.000000	68.749
73.000000	68.817
74.000000	68.881
75.000000	68.940
76.199997	69.004
77.500000	69.067
78.800003	69.128
80.000000	69.184
81.199997	69.242
82.500000	69.304
83.800003	69.367
85.000000	69.423
86.199997	69.478
87.500000	69.535
88.500000	69.577
90.000000	69.640
91.199997	69.691
92.500000	69.745
93.800003	69.796
95.000000	69.841
96.199997	69.883
97.500000	69.925
98.800003	69.966
100.000000	70.005
101.500000	70.054
103.000000	70.105
104.400002	70.150
106.000000	70.199
107.500000	70.241
109.000000	70.282
110.599998	70.325
112.000000	70.364
113.800003	70.413
115.000000	70.443
117.199997	70.481
118.000000	70.487
120.599998	70.491
122.000000	70.494
124.099998	70.517
125.000000	70.535
126.500000	70.575
128.000000	70.622
131.500000	70.732
132.000000	70.745
134.000000	70.794
136.000000	70.836
138.000000	70.873
140.000000	70.907
143.000000	70.955
145.000000	70.987
147.500000	71.029
150.000000	71.074
152.500000	71.122
155.000000	71.170
157.500000	71.217
160.000000	71.263
162.500000	71.307
165.000000	71.350
167.500000	71.390
170.000000	71.426
172.500000	71.457
175.000000	71.485
177.500000	71.513
180.000000	71.540
182.500000	71.570
185.000000	71.601
187.500000	71.634
190.000000	71.668
192.500000	71.701
195.000000	71.735
197.500000	71.768
200.000000	71.800
203.000000	71.836
206.000000	71.870
209.000000	71.903
212.000000	71.934
214.000000	71.953
218.000000	71.988
220.000000	72.004
224.000000	72.034
227.000000	72.053
230.000000	72.072
233.000000	72.090
236.000000	72.106
240.000000	72.125
243.000000	72.139
247.000000	72.157
250.000000	72.170
254.000000	72.187
258.000000	72.203
262.000000	72.218
265.000000	72.228
269.000000	72.239
272.000000	72.246
276.000000	72.253
280.000000	72.259
285.000000	72.266
290.000000	72.274
295.000000	72.282
300.000000	72.291
304.000000	72.297
307.000000	72.302
311.000000	72.308
315.000000	72.313
320.000000	72.319
325.000000	72.323
330.000000	72.324
335.000000	72.324
340.000000	72.322
345.000000	72.318
350.000000	72.312
355.000000	72.305
360.000000	72.297
365.000000	72.289
370.000000	72.280
375.000000	72.270
382.000000	72.254
387.000000	72.242
395.000000	72.217
400.000000	72.198
406.000000	72.173
412.000000	72.147
418.000000	72.122
425.000000	72.096
431.000000	72.076
437.000000	72.060
444.000000	72.049
450.000000	72.045
455.000000	72.045
462.000000	72.050
468.000000	72.054
475.000000	72.058
482.000000	72.059
487.000000	72.059
494.000000	72.058
500.000000	72.057
508.000000	72.057
515.000000	72.059
522.000000	72.065
530.000000	72.077
538.000000	72.095
545.000000	72.112
552.000000	72.131
560.000000	72.152
570.000000	72.176
580.000000	72.197
590.000000	72.217
600.000000	72.235
608.000000	72.247
615.000000	72.257
622.000000	72.266
630.000000	72.275
640.000000	72.284
650.000000	72.287
660.000000	72.285
670.000000	72.276
680.000000	72.257
690.000000	72.230
700.000000	72.196
710.000000	72.160
720.000000	72.126
730.000000	72.095
740.000000	72.066
750.000000	72.038
762.000000	72.005
775.000000	71.977
788.000000	71.967
800.000000	71.978
812.000000	72.005
825.000000	72.039
838.000000	72.063
850.000000	72.070
862.000000	72.065
875.000000	72.049
885.000000	72.032
900.000000	71.996
912.000000	71.957
925.000000	71.908
938.000000	71.851
950.000000	71.792
962.000000	71.727
975.000000	71.647
988.000000	71.563
1000.000000	71.485
1015.000000	71.394
1030.000000	71.319
1044.000000	71.268
1060.000000	71.233
1075.000000	71.216
1090.000000	71.204
1106.000000	71.187
1120.000000	71.161
1138.000000	71.109
1150.000000	71.063
1172.000000	70.962
1180.000000	70.922
1206.000000	70.797
1220.000000	70.736
1241.000000	70.661
1250.000000	70.636
1265.000000	70.609
1280.000000	70.600
1315.000000	70.637
1320.000000	70.648
1340.000000	70.699
1360.000000	70.757
1380.000000	70.814
1400.000000	70.861
1430.000000	70.908
1450.000000	70.932
1475.000000	70.983
1500.000000	71.084
1525.000000	71.227
1550.000000	71.382
1575.000000	71.525
1600.000000	71.652
1625.000000	71.769
1650.000000	71.883
1675.000000	72.001
1700.000000	72.131
1725.000000	72.276
1750.000000	72.436
1775.000000	72.608
1800.000000	72.790
1825.000000	72.984
1850.000000	73.187
1875.000000	73.395
1900.000000	73.605
1925.000000	73.817
1950.000000	74.031
1975.000000	74.249
2000.000000	74.470
2030.000000	74.736
2060.000000	74.998
2090.000000	75.256
2120.000000	75.511
2140.000000	75.681
2180.000000	76.020
2200.000000	76.190
2240.000000	76.533
2270.000000	76.798
2300.000000	77.069
2330.000000	77.347
2360.000000	77.630
2400.000000	78.010
2430.000000	78.296
2470.000000	78.679
2500.000000	78.970
2540.000000	79.367
2580.000000	79.779
2620.000000	80.206
2650.000000	80.535
2690.000000	80.980
2720.000000	81.315
2760.000000	81.759
2800.000000	82.191
2850.000000	82.705
2900.000000	83.175
2950.000000	83.581
3000.000000	83.907
3040.000000	84.100
3070.000000	84.202
3110.000000	84.280
3150.000000	84.295
3200.000000	84.230
3250.000000	84.081
3300.000000	83.860
3350.000000	83.584
3400.000000	83.278
3450.000000	82.961
3500.000000	82.647
3550.000000	82.341
3600.000000	82.046
3650.000000	81.763
3700.000000	81.497
3750.000000	81.255
3820.000000	80.971
3870.000000	80.812
3950.000000	80.637
4000.000000	80.575
4060.000000	80.537
4120.000000	80.514
4180.000000	80.478
4250.000000	80.391
4310.000000	80.268
4370.000000	80.099
4440.000000	79.841
4500.000000	79.577
4550.000000	79.336
4620.000000	78.985
4680.000000	78.685
4750.000000	78.339
4820.000000	77.992
4870.000000	77.737
4940.000000	77.362
5000.000000	77.027
5080.000000	76.583
5150.000000	76.236
5220.000000	75.977
5300.000000	75.836
5380.000000	75.870
5450.000000	76.012
5520.000000	76.213
5600.000000	76.459
5700.000000	76.734
5800.000000	76.951
5900.000000	77.122
6000.000000	77.277
6080.000000	77.414
6150.000000	77.562
6220.000000	77.752
6300.000000	78.033
6400.000000	78.479
6500.000000	78.981
6600.000000	79.440
6700.000000	79.742
6800.000000	79.793
6900.000000	79.544
7000.000000	79.002
7100.000000	78.223
7200.000000	77.308
7300.000000	76.386
7400.000000	75.579
7500.000000	74.968
7620.000000	74.527
7750.000000	74.390
7880.000000	74.589
8000.000000	75.063
8120.000000	75.761
8250.000000	76.624
8380.000000	77.400
8500.000000	77.880
8620.000000	78.023
8750.000000	77.729
8850.000000	77.173
9000.000000	75.835
9120.000000	74.407
9250.000000	72.666
9380.000000	70.975
9500.000000	69.707
9620.000000	68.855
9750.000000	68.378
9880.000000	68.275
10000.000000	68.466
10150.000000	69.066
10300.000000	69.987
10440.000000	70.985
10600.000000	72.081
10750.000000	72.899
10900.000000	73.402
11060.000000	73.534
11200.000000	73.300
11380.000000	72.577
11500.000000	71.894
11720.000000	70.487
11800.000000	70.027
12060.000000	69.339
12200.000000	69.661
12410.000000	70.796
12500.000000	71.383
12650.000000	72.353
12800.000000	73.235
13150.000000	74.726
13200.000000	74.859
13400.000000	75.158
13600.000000	75.047
13800.000000	74.516
14000.000000	73.606
14300.000000	71.831
14500.000000	70.785
14750.000000	70.249
15000.000000	70.620
15250.000000	71.316
15500.000000	71.901
15750.000000	72.285
16000.000000	72.534
16250.000000	72.729
16500.000000	72.909
16750.000000	73.056
17000.000000	73.097
17250.000000	72.926
17500.000000	72.454
17750.000000	71.641
18000.000000	70.533
18250.000000	69.282
18500.000000	68.171
18750.000000	67.510
19000.000000	67.387
19250.000000	67.595
19500.000000	67.877
19750.000000	68.090
