* Measurement data measured by REW V5.20.13
* Source: Frequency Response Averaged data
* Format: Averaged data produced from the rms magnitudes of HD800s ? Pads L, HD800s ? Pads L, HD800s ? Pads L, HD800s ? Pads L
* Dated: Apr 9, 2024 3:40:43 PM
* REW Settings:
*  C-weighting compensation: Off
*  Target level: 75.0 dB
* Note: Averaged data produced from the rms magnitudes of HD800s ? Pads L, HD800s ? Pads L, HD800s ? Pads L, HD800s ? Pads L
* Measurement: RMS Avg Kito Pads L
* Smoothing: 1/12 octave
* Frequency Step: 1/48 octave
* Start Frequency: 20.000 Hz
*
* Freq(Hz)	SPL(dB)
20.000000	64.929
20.299999	65.122
20.600000	65.296
20.900000	65.455
21.200001	65.611
21.400000	65.721
21.799999	65.955
22.000000	66.079
22.400000	66.322
22.700001	66.484
23.000000	66.619
23.299999	66.733
23.600000	66.843
24.000000	67.018
24.299999	67.184
24.700001	67.439
25.000000	67.625
25.400000	67.823
25.799999	67.941
26.200001	68.004
26.500000	68.055
26.900000	68.174
27.200001	68.313
27.600000	68.545
28.000000	68.776
28.500000	68.996
29.000000	69.132
29.500000	69.229
30.000000	69.327
30.400000	69.409
30.700001	69.467
31.100000	69.536
31.500000	69.599
32.000000	69.683
32.500000	69.783
33.000000	69.896
33.500000	70.011
34.000000	70.120
34.500000	70.224
35.000000	70.324
35.500000	70.422
36.000000	70.521
36.500000	70.622
37.000000	70.721
37.500000	70.814
38.200001	70.927
38.700001	70.998
39.500000	71.103
40.000000	71.162
40.599998	71.231
41.200001	71.308
41.799999	71.398
42.500000	71.505
43.099998	71.583
43.700001	71.644
44.400002	71.704
45.000000	71.755
45.500000	71.799
46.200001	71.861
46.799999	71.916
47.500000	71.987
48.200001	72.061
48.700001	72.108
49.400002	72.157
50.000000	72.179
50.799999	72.192
51.500000	72.206
52.200001	72.242
53.000000	72.308
53.799999	72.382
54.500000	72.437
55.200001	72.485
56.000000	72.539
57.000000	72.603
58.000000	72.648
59.000000	72.678
60.000000	72.718
60.799999	72.763
61.500000	72.806
62.200001	72.848
63.000000	72.890
64.000000	72.936
65.000000	72.977
66.000000	73.014
67.000000	73.045
68.000000	73.070
69.000000	73.092
70.000000	73.111
71.000000	73.129
72.000000	73.149
73.000000	73.174
74.000000	73.205
75.000000	73.241
76.199997	73.287
77.500000	73.336
78.800003	73.384
80.000000	73.427
81.199997	73.471
82.500000	73.519
83.800003	73.565
85.000000	73.605
86.199997	73.642
87.500000	73.684
88.500000	73.717
90.000000	73.768
91.199997	73.809
92.500000	73.851
93.800003	73.890
95.000000	73.923
96.199997	73.953
97.500000	73.982
98.800003	74.008
100.000000	74.026
101.500000	74.045
103.000000	74.067
104.400002	74.093
106.000000	74.128
107.500000	74.156
109.000000	74.181
110.599998	74.205
112.000000	74.228
113.800003	74.262
115.000000	74.283
117.199997	74.318
118.000000	74.329
120.599998	74.358
122.000000	74.367
124.099998	74.377
125.000000	74.384
126.500000	74.398
128.000000	74.415
131.500000	74.455
132.000000	74.460
134.000000	74.480
136.000000	74.498
138.000000	74.514
140.000000	74.526
143.000000	74.541
145.000000	74.555
147.500000	74.575
150.000000	74.597
152.500000	74.616
155.000000	74.633
157.500000	74.645
160.000000	74.654
162.500000	74.663
165.000000	74.675
167.500000	74.686
170.000000	74.696
172.500000	74.703
175.000000	74.708
177.500000	74.713
180.000000	74.717
182.500000	74.719
185.000000	74.718
187.500000	74.717
190.000000	74.718
192.500000	74.721
195.000000	74.725
197.500000	74.729
200.000000	74.732
203.000000	74.734
206.000000	74.735
209.000000	74.735
212.000000	74.734
214.000000	74.733
218.000000	74.732
220.000000	74.731
224.000000	74.727
227.000000	74.724
230.000000	74.721
233.000000	74.719
236.000000	74.718
240.000000	74.717
243.000000	74.715
247.000000	74.710
250.000000	74.706
254.000000	74.700
258.000000	74.694
262.000000	74.690
265.000000	74.688
269.000000	74.686
272.000000	74.685
276.000000	74.682
280.000000	74.677
285.000000	74.671
290.000000	74.663
295.000000	74.656
300.000000	74.651
304.000000	74.648
307.000000	74.646
311.000000	74.643
315.000000	74.641
320.000000	74.637
325.000000	74.632
330.000000	74.623
335.000000	74.613
340.000000	74.607
345.000000	74.606
350.000000	74.607
355.000000	74.607
360.000000	74.605
365.000000	74.603
370.000000	74.600
375.000000	74.597
382.000000	74.590
387.000000	74.585
395.000000	74.574
400.000000	74.567
406.000000	74.559
412.000000	74.552
418.000000	74.548
425.000000	74.545
431.000000	74.544
437.000000	74.544
444.000000	74.545
450.000000	74.548
455.000000	74.551
462.000000	74.557
468.000000	74.562
475.000000	74.568
482.000000	74.573
487.000000	74.577
494.000000	74.581
500.000000	74.584
508.000000	74.588
515.000000	74.591
522.000000	74.594
530.000000	74.595
538.000000	74.592
545.000000	74.585
552.000000	74.579
560.000000	74.578
570.000000	74.588
580.000000	74.603
590.000000	74.623
600.000000	74.642
608.000000	74.655
615.000000	74.662
622.000000	74.665
630.000000	74.665
640.000000	74.662
650.000000	74.664
660.000000	74.673
670.000000	74.686
680.000000	74.697
690.000000	74.709
700.000000	74.726
710.000000	74.747
720.000000	74.768
730.000000	74.785
740.000000	74.796
750.000000	74.802
762.000000	74.809
775.000000	74.814
788.000000	74.811
800.000000	74.799
812.000000	74.781
825.000000	74.759
838.000000	74.732
850.000000	74.707
862.000000	74.682
875.000000	74.651
885.000000	74.619
900.000000	74.558
912.000000	74.500
925.000000	74.434
938.000000	74.372
950.000000	74.322
962.000000	74.280
975.000000	74.242
988.000000	74.215
1000.000000	74.201
1015.000000	74.190
1030.000000	74.168
1044.000000	74.125
1060.000000	74.043
1075.000000	73.937
1090.000000	73.823
1106.000000	73.721
1120.000000	73.660
1138.000000	73.618
1150.000000	73.601
1172.000000	73.583
1180.000000	73.582
1206.000000	73.603
1220.000000	73.614
1241.000000	73.600
1250.000000	73.582
1265.000000	73.547
1280.000000	73.513
1315.000000	73.452
1320.000000	73.443
1340.000000	73.400
1360.000000	73.349
1380.000000	73.306
1400.000000	73.294
1430.000000	73.315
1450.000000	73.311
1475.000000	73.265
1500.000000	73.200
1525.000000	73.163
1550.000000	73.172
1575.000000	73.192
1600.000000	73.190
1625.000000	73.169
1650.000000	73.121
1675.000000	73.046
1700.000000	72.961
1725.000000	72.900
1750.000000	72.901
1775.000000	72.959
1800.000000	73.027
1825.000000	73.062
1850.000000	73.065
1875.000000	73.070
1900.000000	73.109
1925.000000	73.183
1950.000000	73.281
1975.000000	73.395
2000.000000	73.524
2030.000000	73.696
2060.000000	73.859
2090.000000	73.988
2120.000000	74.082
2140.000000	74.135
2180.000000	74.244
2200.000000	74.300
2240.000000	74.427
2270.000000	74.574
2300.000000	74.785
2330.000000	75.027
2360.000000	75.254
2400.000000	75.532
2430.000000	75.757
2470.000000	76.104
2500.000000	76.393
2540.000000	76.825
2580.000000	77.300
2620.000000	77.776
2650.000000	78.129
2690.000000	78.606
2720.000000	78.967
2760.000000	79.463
2800.000000	79.972
2850.000000	80.588
2900.000000	81.131
2950.000000	81.527
3000.000000	81.765
3040.000000	81.874
3070.000000	81.923
3110.000000	81.953
3150.000000	81.930
3200.000000	81.809
3250.000000	81.592
3300.000000	81.305
3350.000000	80.969
3400.000000	80.577
3450.000000	80.130
3500.000000	79.677
3550.000000	79.296
3600.000000	79.026
3650.000000	78.854
3700.000000	78.769
3750.000000	78.754
3820.000000	78.743
3870.000000	78.680
3950.000000	78.496
4000.000000	78.397
4060.000000	78.369
4120.000000	78.466
4180.000000	78.650
4250.000000	78.883
4310.000000	79.072
4370.000000	79.265
4440.000000	79.523
4500.000000	79.818
4550.000000	80.142
4620.000000	80.707
4680.000000	81.246
4750.000000	81.853
4820.000000	82.328
4870.000000	82.525
4940.000000	82.548
5000.000000	82.345
5080.000000	81.841
5150.000000	81.259
5220.000000	80.576
5300.000000	79.713
5380.000000	78.878
5450.000000	78.292
5520.000000	77.930
5600.000000	77.839
5700.000000	78.174
5800.000000	78.872
5900.000000	79.658
6000.000000	80.240
6080.000000	80.463
6150.000000	80.486
6220.000000	80.379
6300.000000	80.148
6400.000000	79.782
6500.000000	79.434
6600.000000	79.209
6700.000000	79.203
6800.000000	79.493
6900.000000	80.111
7000.000000	81.007
7100.000000	82.007
7200.000000	82.835
7300.000000	83.198
7400.000000	82.889
7500.000000	81.858
7620.000000	79.820
7750.000000	76.996
7880.000000	73.975
8000.000000	71.467
8120.000000	69.925
8250.000000	70.136
8380.000000	71.926
8500.000000	73.942
8620.000000	75.627
8750.000000	76.784
8850.000000	77.196
9000.000000	77.096
9120.000000	76.392
9250.000000	75.044
9380.000000	73.347
9500.000000	71.823
9620.000000	70.518
9750.000000	69.245
9880.000000	67.986
10000.000000	67.136
10150.000000	67.561
10300.000000	69.497
10440.000000	71.459
10600.000000	73.178
10750.000000	74.153
10900.000000	74.567
11060.000000	74.465
11200.000000	73.920
11380.000000	72.602
11500.000000	71.435
11720.000000	69.300
11800.000000	68.785
12060.000000	69.338
12200.000000	70.840
12410.000000	73.391
12500.000000	74.361
12650.000000	75.671
12800.000000	76.548
13150.000000	76.947
13200.000000	76.828
13400.000000	75.970
13600.000000	74.603
13800.000000	72.980
14000.000000	71.718
14300.000000	72.021
14500.000000	73.152
14750.000000	74.601
15000.000000	75.711
15250.000000	76.038
15500.000000	75.260
15750.000000	73.469
16000.000000	71.412
16250.000000	70.361
16500.000000	70.603
16750.000000	71.410
17000.000000	72.205
17250.000000	72.589
17500.000000	72.377
17750.000000	71.627
18000.000000	70.549
18250.000000	69.436
18500.000000	68.624
18750.000000	68.344
19000.000000	68.479
19250.000000	68.668
19500.000000	68.649
19750.000000	68.406
