* Measurement data measured by REW V5.20.13
* Source: Frequency Response Averaged data
* Format: Averaged data produced from the rms magnitudes of HD800s Stock Pads R, HD800s Stock Pads R, HD800s Stock Pads R
* Dated: Apr 9, 2024 4:07:33 PM
* REW Settings:
*  C-weighting compensation: Off
*  Target level: 75.0 dB
* Note: Averaged data produced from the rms magnitudes of HD800s Stock Pads R, HD800s Stock Pads R, HD800s Stock Pads R
* Measurement: RMS Avg Stock Pads R
* Smoothing: 1/12 octave
* Frequency Step: 1/48 octave
* Start Frequency: 20.000 Hz
*
* Freq(Hz)	SPL(dB)
20.000000	66.808
20.299999	67.003
20.600000	67.180
20.900000	67.335
21.200001	67.473
21.400000	67.561
21.799999	67.735
22.000000	67.823
22.400000	68.000
22.700001	68.125
23.000000	68.239
23.299999	68.342
23.600000	68.440
24.000000	68.579
24.299999	68.701
24.700001	68.891
25.000000	69.047
25.400000	69.257
25.799999	69.453
26.200001	69.628
26.500000	69.749
26.900000	69.904
27.200001	70.017
27.600000	70.164
28.000000	70.301
28.500000	70.453
29.000000	70.589
29.500000	70.717
30.000000	70.838
30.400000	70.925
30.700001	70.983
31.100000	71.052
31.500000	71.118
32.000000	71.205
32.500000	71.305
33.000000	71.414
33.500000	71.528
34.000000	71.639
34.500000	71.747
35.000000	71.852
35.500000	71.960
36.000000	72.070
36.500000	72.180
37.000000	72.282
37.500000	72.374
38.200001	72.489
38.700001	72.565
39.500000	72.674
40.000000	72.730
40.599998	72.789
41.200001	72.849
41.799999	72.912
42.500000	72.987
43.099998	73.052
43.700001	73.115
44.400002	73.188
45.000000	73.246
45.500000	73.290
46.200001	73.339
46.799999	73.369
47.500000	73.401
48.200001	73.440
48.700001	73.469
49.400002	73.490
50.000000	73.488
50.799999	73.487
51.500000	73.511
52.200001	73.544
53.000000	73.574
53.799999	73.607
54.500000	73.651
55.200001	73.706
56.000000	73.767
57.000000	73.824
58.000000	73.857
59.000000	73.871
60.000000	73.858
60.799999	73.829
61.500000	73.796
62.200001	73.764
63.000000	73.732
64.000000	73.698
65.000000	73.670
66.000000	73.646
67.000000	73.625
68.000000	73.607
69.000000	73.586
70.000000	73.560
71.000000	73.532
72.000000	73.507
73.000000	73.493
74.000000	73.499
75.000000	73.529
76.199997	73.599
77.500000	73.718
78.800003	73.866
80.000000	74.001
81.199997	74.126
82.500000	74.253
83.800003	74.369
85.000000	74.466
86.199997	74.559
87.500000	74.657
88.500000	74.723
90.000000	74.803
91.199997	74.856
92.500000	74.911
93.800003	74.959
95.000000	74.997
96.199997	75.035
97.500000	75.078
98.800003	75.119
100.000000	75.151
101.500000	75.181
103.000000	75.193
104.400002	75.195
106.000000	75.205
107.500000	75.222
109.000000	75.233
110.599998	75.233
112.000000	75.232
113.800003	75.230
115.000000	75.227
117.199997	75.222
118.000000	75.224
120.599998	75.252
122.000000	75.281
124.099998	75.331
125.000000	75.351
126.500000	75.381
128.000000	75.405
131.500000	75.441
132.000000	75.445
134.000000	75.464
136.000000	75.480
138.000000	75.488
140.000000	75.497
143.000000	75.522
145.000000	75.541
147.500000	75.555
150.000000	75.555
152.500000	75.549
155.000000	75.544
157.500000	75.537
160.000000	75.527
162.500000	75.536
165.000000	75.566
167.500000	75.599
170.000000	75.624
172.500000	75.645
175.000000	75.660
177.500000	75.667
180.000000	75.667
182.500000	75.664
185.000000	75.661
187.500000	75.659
190.000000	75.659
192.500000	75.658
195.000000	75.658
197.500000	75.659
200.000000	75.660
203.000000	75.662
206.000000	75.663
209.000000	75.666
212.000000	75.668
214.000000	75.670
218.000000	75.674
220.000000	75.674
224.000000	75.675
227.000000	75.675
230.000000	75.675
233.000000	75.674
236.000000	75.670
240.000000	75.663
243.000000	75.659
247.000000	75.655
250.000000	75.652
254.000000	75.646
258.000000	75.640
262.000000	75.634
265.000000	75.629
269.000000	75.621
272.000000	75.614
276.000000	75.606
280.000000	75.598
285.000000	75.586
290.000000	75.575
295.000000	75.564
300.000000	75.551
304.000000	75.538
307.000000	75.529
311.000000	75.518
315.000000	75.508
320.000000	75.494
325.000000	75.479
330.000000	75.467
335.000000	75.458
340.000000	75.452
345.000000	75.447
350.000000	75.439
355.000000	75.430
360.000000	75.421
365.000000	75.413
370.000000	75.406
375.000000	75.399
382.000000	75.388
387.000000	75.382
395.000000	75.369
400.000000	75.357
406.000000	75.341
412.000000	75.324
418.000000	75.310
425.000000	75.292
431.000000	75.276
437.000000	75.258
444.000000	75.240
450.000000	75.228
455.000000	75.222
462.000000	75.217
468.000000	75.214
475.000000	75.207
482.000000	75.196
487.000000	75.187
494.000000	75.175
500.000000	75.164
508.000000	75.148
515.000000	75.132
522.000000	75.118
530.000000	75.107
538.000000	75.100
545.000000	75.096
552.000000	75.092
560.000000	75.086
570.000000	75.074
580.000000	75.063
590.000000	75.054
600.000000	75.044
608.000000	75.032
615.000000	75.019
622.000000	75.004
630.000000	74.987
640.000000	74.962
650.000000	74.932
660.000000	74.901
670.000000	74.871
680.000000	74.838
690.000000	74.801
700.000000	74.766
710.000000	74.738
720.000000	74.719
730.000000	74.706
740.000000	74.696
750.000000	74.682
762.000000	74.657
775.000000	74.620
788.000000	74.587
800.000000	74.580
812.000000	74.610
825.000000	74.675
838.000000	74.738
850.000000	74.772
862.000000	74.783
875.000000	74.784
885.000000	74.783
900.000000	74.774
912.000000	74.753
925.000000	74.724
938.000000	74.689
950.000000	74.647
962.000000	74.592
975.000000	74.519
988.000000	74.436
1000.000000	74.350
1015.000000	74.239
1030.000000	74.143
1044.000000	74.075
1060.000000	74.028
1075.000000	74.003
1090.000000	73.974
1106.000000	73.924
1120.000000	73.865
1138.000000	73.775
1150.000000	73.705
1172.000000	73.568
1180.000000	73.522
1206.000000	73.389
1220.000000	73.319
1241.000000	73.218
1250.000000	73.180
1265.000000	73.128
1280.000000	73.094
1315.000000	73.047
1320.000000	73.043
1340.000000	73.035
1360.000000	73.046
1380.000000	73.067
1400.000000	73.089
1430.000000	73.119
1450.000000	73.136
1475.000000	73.168
1500.000000	73.252
1525.000000	73.390
1550.000000	73.524
1575.000000	73.633
1600.000000	73.726
1625.000000	73.809
1650.000000	73.884
1675.000000	73.967
1700.000000	74.071
1725.000000	74.189
1750.000000	74.302
1775.000000	74.411
1800.000000	74.526
1825.000000	74.655
1850.000000	74.789
1875.000000	74.922
1900.000000	75.055
1925.000000	75.195
1950.000000	75.349
1975.000000	75.522
2000.000000	75.700
2030.000000	75.897
2060.000000	76.071
2090.000000	76.238
2120.000000	76.411
2140.000000	76.532
2180.000000	76.768
2200.000000	76.882
2240.000000	77.120
2270.000000	77.312
2300.000000	77.514
2330.000000	77.724
2360.000000	77.938
2400.000000	78.215
2430.000000	78.407
2470.000000	78.645
2500.000000	78.830
2540.000000	79.098
2580.000000	79.398
2620.000000	79.741
2650.000000	80.022
2690.000000	80.411
2720.000000	80.702
2760.000000	81.079
2800.000000	81.439
2850.000000	81.848
2900.000000	82.194
2950.000000	82.467
3000.000000	82.640
3040.000000	82.702
3070.000000	82.705
3110.000000	82.650
3150.000000	82.540
3200.000000	82.348
3250.000000	82.110
3300.000000	81.831
3350.000000	81.547
3400.000000	81.300
3450.000000	81.092
3500.000000	80.916
3550.000000	80.798
3600.000000	80.762
3650.000000	80.819
3700.000000	80.957
3750.000000	81.141
3820.000000	81.386
3870.000000	81.528
3950.000000	81.694
4000.000000	81.750
4060.000000	81.759
4120.000000	81.710
4180.000000	81.632
4250.000000	81.528
4310.000000	81.427
4370.000000	81.326
4440.000000	81.244
4500.000000	81.243
4550.000000	81.301
4620.000000	81.467
4680.000000	81.670
4750.000000	81.940
4820.000000	82.207
4870.000000	82.384
4940.000000	82.620
5000.000000	82.825
5080.000000	83.109
5150.000000	83.339
5220.000000	83.514
5300.000000	83.618
5380.000000	83.618
5450.000000	83.554
5520.000000	83.453
5600.000000	83.326
5700.000000	83.222
5800.000000	83.234
5900.000000	83.326
6000.000000	83.417
6080.000000	83.432
6150.000000	83.377
6220.000000	83.247
6300.000000	83.002
6400.000000	82.559
6500.000000	82.002
6600.000000	81.394
6700.000000	80.805
6800.000000	80.303
6900.000000	79.935
7000.000000	79.725
7100.000000	79.676
7200.000000	79.771
7300.000000	79.976
7400.000000	80.242
7500.000000	80.498
7620.000000	80.659
7750.000000	80.432
7880.000000	79.581
8000.000000	78.178
8120.000000	76.267
8250.000000	73.824
8380.000000	71.279
8500.000000	69.467
8620.000000	69.496
8750.000000	71.662
8850.000000	73.637
9000.000000	75.933
9120.000000	76.948
9250.000000	77.218
9380.000000	76.762
9500.000000	75.887
9620.000000	74.783
9750.000000	73.562
9880.000000	72.527
10000.000000	71.845
10150.000000	71.380
10300.000000	71.293
10440.000000	71.504
10600.000000	71.954
10750.000000	72.330
10900.000000	72.407
11060.000000	71.997
11200.000000	71.284
11380.000000	70.486
11500.000000	70.478
11720.000000	71.470
11800.000000	71.936
12060.000000	73.289
12200.000000	73.898
12410.000000	74.820
12500.000000	75.278
12650.000000	76.179
12800.000000	77.213
13150.000000	79.297
13200.000000	79.468
13400.000000	79.715
13600.000000	79.291
13800.000000	78.344
14000.000000	77.097
14300.000000	75.234
14500.000000	74.297
14750.000000	73.380
15000.000000	72.217
15250.000000	70.363
15500.000000	68.120
15750.000000	67.164
16000.000000	68.373
16250.000000	70.242
16500.000000	71.935
16750.000000	73.279
17000.000000	74.168
17250.000000	74.466
17500.000000	74.068
17750.000000	73.005
18000.000000	71.517
18250.000000	69.979
18500.000000	68.642
18750.000000	67.513
19000.000000	66.570
19250.000000	65.922
19500.000000	65.644
19750.000000	65.607
