* Measurement data measured by REW V5.20.13
* Source: Frequency Response Averaged data
* Format: Averaged data produced from the rms magnitudes of HD800s Dkni EHY Pads L, HD800s Dkni EHY Pads L, HD800s Dkni EHY Pads L
* Dated: Apr 9, 2024 3:54:40 PM
* REW Settings:
*  C-weighting compensation: Off
*  Target level: 75.0 dB
* Note: Averaged data produced from the rms magnitudes of HD800s Dkni EHY Pads L, HD800s Dkni EHY Pads L, HD800s Dkni EHY Pads L
* Measurement: RMS Avg Dkni EHY Pads L
* Smoothing: 1/12 octave
* Frequency Step: 1/48 octave
* Start Frequency: 20.000 Hz
*
* Freq(Hz)	SPL(dB)
20.000000	54.803
20.299999	55.188
20.600000	55.498
20.900000	55.729
21.200001	55.897
21.400000	55.993
21.799999	56.190
22.000000	56.315
22.400000	56.653
22.700001	56.976
23.000000	57.324
23.299999	57.652
23.600000	57.927
24.000000	58.179
24.299999	58.286
24.700001	58.356
25.000000	58.393
25.400000	58.465
25.799999	58.579
26.200001	58.724
26.500000	58.845
26.900000	59.021
27.200001	59.170
27.600000	59.390
28.000000	59.612
28.500000	59.837
29.000000	59.974
29.500000	60.062
30.000000	60.170
30.400000	60.294
30.700001	60.398
31.100000	60.530
31.500000	60.633
32.000000	60.719
32.500000	60.783
33.000000	60.867
33.500000	60.997
34.000000	61.168
34.500000	61.343
35.000000	61.482
35.500000	61.571
36.000000	61.645
36.500000	61.759
37.000000	61.938
37.500000	62.156
38.200001	62.442
38.700001	62.603
39.500000	62.821
40.000000	62.959
40.599998	63.140
41.200001	63.339
41.799999	63.532
42.500000	63.710
43.099998	63.810
43.700001	63.888
44.400002	63.995
45.000000	64.112
45.500000	64.215
46.200001	64.355
46.799999	64.468
47.500000	64.598
48.200001	64.721
48.700001	64.802
49.400002	64.899
50.000000	64.966
50.799999	65.036
51.500000	65.088
52.200001	65.146
53.000000	65.236
53.799999	65.355
54.500000	65.471
55.200001	65.576
56.000000	65.668
57.000000	65.768
58.000000	65.889
59.000000	66.005
60.000000	66.113
60.799999	66.199
61.500000	66.266
62.200001	66.326
63.000000	66.394
64.000000	66.481
65.000000	66.567
66.000000	66.657
67.000000	66.751
68.000000	66.843
69.000000	66.929
70.000000	67.007
71.000000	67.079
72.000000	67.147
73.000000	67.210
74.000000	67.273
75.000000	67.337
76.199997	67.413
77.500000	67.495
78.800003	67.570
80.000000	67.628
81.199997	67.680
82.500000	67.735
83.800003	67.793
85.000000	67.854
86.199997	67.923
87.500000	68.000
88.500000	68.050
90.000000	68.101
91.199997	68.130
92.500000	68.160
93.800003	68.196
95.000000	68.236
96.199997	68.285
97.500000	68.347
98.800003	68.409
100.000000	68.458
101.500000	68.506
103.000000	68.549
104.400002	68.597
106.000000	68.660
107.500000	68.711
109.000000	68.743
110.599998	68.766
112.000000	68.791
113.800003	68.841
115.000000	68.883
117.199997	68.939
118.000000	68.951
120.599998	68.992
122.000000	69.023
124.099998	69.076
125.000000	69.101
126.500000	69.143
128.000000	69.180
131.500000	69.252
132.000000	69.262
134.000000	69.299
136.000000	69.338
138.000000	69.383
140.000000	69.435
143.000000	69.510
145.000000	69.551
147.500000	69.593
150.000000	69.631
152.500000	69.670
155.000000	69.715
157.500000	69.763
160.000000	69.804
162.500000	69.836
165.000000	69.864
167.500000	69.891
170.000000	69.918
172.500000	69.945
175.000000	69.971
177.500000	69.996
180.000000	70.020
182.500000	70.043
185.000000	70.064
187.500000	70.085
190.000000	70.109
192.500000	70.137
195.000000	70.164
197.500000	70.189
200.000000	70.214
203.000000	70.245
206.000000	70.276
209.000000	70.303
212.000000	70.328
214.000000	70.343
218.000000	70.369
220.000000	70.380
224.000000	70.404
227.000000	70.423
230.000000	70.444
233.000000	70.465
236.000000	70.485
240.000000	70.508
243.000000	70.522
247.000000	70.536
250.000000	70.544
254.000000	70.556
258.000000	70.567
262.000000	70.577
265.000000	70.586
269.000000	70.597
272.000000	70.603
276.000000	70.610
280.000000	70.618
285.000000	70.631
290.000000	70.639
295.000000	70.641
300.000000	70.642
304.000000	70.645
307.000000	70.646
311.000000	70.646
315.000000	70.645
320.000000	70.642
325.000000	70.633
330.000000	70.621
335.000000	70.609
340.000000	70.600
345.000000	70.595
350.000000	70.590
355.000000	70.584
360.000000	70.577
365.000000	70.566
370.000000	70.553
375.000000	70.538
382.000000	70.513
387.000000	70.494
395.000000	70.459
400.000000	70.438
406.000000	70.416
412.000000	70.397
418.000000	70.383
425.000000	70.371
431.000000	70.365
437.000000	70.363
444.000000	70.367
450.000000	70.376
455.000000	70.385
462.000000	70.399
468.000000	70.411
475.000000	70.423
482.000000	70.434
487.000000	70.441
494.000000	70.452
500.000000	70.460
508.000000	70.470
515.000000	70.478
522.000000	70.483
530.000000	70.482
538.000000	70.472
545.000000	70.459
552.000000	70.449
560.000000	70.446
570.000000	70.458
580.000000	70.480
590.000000	70.508
600.000000	70.534
608.000000	70.549
615.000000	70.557
622.000000	70.558
630.000000	70.549
640.000000	70.527
650.000000	70.508
660.000000	70.502
670.000000	70.508
680.000000	70.518
690.000000	70.536
700.000000	70.567
710.000000	70.611
720.000000	70.657
730.000000	70.695
740.000000	70.719
750.000000	70.730
762.000000	70.731
775.000000	70.713
788.000000	70.674
800.000000	70.625
812.000000	70.576
825.000000	70.529
838.000000	70.489
850.000000	70.456
862.000000	70.424
875.000000	70.387
885.000000	70.355
900.000000	70.307
912.000000	70.264
925.000000	70.216
938.000000	70.172
950.000000	70.139
962.000000	70.118
975.000000	70.107
988.000000	70.100
1000.000000	70.086
1015.000000	70.049
1030.000000	69.982
1044.000000	69.892
1060.000000	69.764
1075.000000	69.632
1090.000000	69.505
1106.000000	69.395
1120.000000	69.328
1138.000000	69.277
1150.000000	69.255
1172.000000	69.230
1180.000000	69.225
1206.000000	69.208
1220.000000	69.187
1241.000000	69.129
1250.000000	69.100
1265.000000	69.055
1280.000000	69.022
1315.000000	68.984
1320.000000	68.982
1340.000000	68.975
1360.000000	68.960
1380.000000	68.938
1400.000000	68.925
1430.000000	68.917
1450.000000	68.908
1475.000000	68.915
1500.000000	68.970
1525.000000	69.092
1550.000000	69.286
1575.000000	69.509
1600.000000	69.723
1625.000000	69.926
1650.000000	70.100
1675.000000	70.234
1700.000000	70.346
1725.000000	70.470
1750.000000	70.640
1775.000000	70.861
1800.000000	71.101
1825.000000	71.327
1850.000000	71.517
1875.000000	71.674
1900.000000	71.814
1925.000000	71.957
1950.000000	72.121
1975.000000	72.324
2000.000000	72.570
2030.000000	72.905
2060.000000	73.238
2090.000000	73.538
2120.000000	73.804
2140.000000	73.966
2180.000000	74.262
2200.000000	74.397
2240.000000	74.664
2270.000000	74.894
2300.000000	75.163
2330.000000	75.459
2360.000000	75.769
2400.000000	76.200
2430.000000	76.532
2470.000000	76.960
2500.000000	77.275
2540.000000	77.731
2580.000000	78.246
2620.000000	78.771
2650.000000	79.137
2690.000000	79.583
2720.000000	79.899
2760.000000	80.323
2800.000000	80.756
2850.000000	81.277
2900.000000	81.743
2950.000000	82.100
3000.000000	82.305
3040.000000	82.373
3070.000000	82.379
3110.000000	82.346
3150.000000	82.277
3200.000000	82.139
3250.000000	81.944
3300.000000	81.715
3350.000000	81.495
3400.000000	81.288
3450.000000	81.060
3500.000000	80.802
3550.000000	80.536
3600.000000	80.265
3650.000000	79.982
3700.000000	79.699
3750.000000	79.438
3820.000000	79.116
3870.000000	78.915
3950.000000	78.678
4000.000000	78.569
4060.000000	78.448
4120.000000	78.324
4180.000000	78.206
4250.000000	78.089
4310.000000	78.015
4370.000000	77.955
4440.000000	77.867
4500.000000	77.767
4550.000000	77.663
4620.000000	77.466
4680.000000	77.228
4750.000000	76.888
4820.000000	76.518
4870.000000	76.240
4940.000000	75.793
5000.000000	75.327
5080.000000	74.641
5150.000000	74.128
5220.000000	73.807
5300.000000	73.702
5380.000000	73.823
5450.000000	74.026
5520.000000	74.252
5600.000000	74.492
5700.000000	74.733
5800.000000	74.870
5900.000000	74.924
6000.000000	74.995
6080.000000	75.123
6150.000000	75.307
6220.000000	75.557
6300.000000	75.918
6400.000000	76.470
6500.000000	77.084
6600.000000	77.633
6700.000000	77.940
6800.000000	77.856
6900.000000	77.323
7000.000000	76.396
7100.000000	75.223
7200.000000	74.001
7300.000000	72.912
7400.000000	72.081
7500.000000	71.570
7620.000000	71.396
7750.000000	71.689
7880.000000	72.361
8000.000000	73.216
8120.000000	74.217
8250.000000	75.381
8380.000000	76.477
8500.000000	77.215
8620.000000	77.485
8750.000000	77.114
8850.000000	76.350
9000.000000	74.544
9120.000000	72.727
9250.000000	70.743
9380.000000	69.216
9500.000000	68.412
9620.000000	67.999
9750.000000	67.701
9880.000000	67.443
10000.000000	67.305
10150.000000	67.463
10300.000000	68.139
10440.000000	69.120
10600.000000	70.277
10750.000000	71.052
10900.000000	71.316
11060.000000	70.922
11200.000000	69.981
11380.000000	68.053
11500.000000	66.505
11720.000000	64.460
11800.000000	64.460
12060.000000	66.550
12200.000000	67.813
12410.000000	69.122
12500.000000	69.455
12650.000000	69.752
12800.000000	69.823
13150.000000	69.771
13200.000000	69.767
13400.000000	69.661
13600.000000	69.201
13800.000000	68.234
14000.000000	66.898
14300.000000	65.534
14500.000000	66.000
14750.000000	67.838
15000.000000	70.010
15250.000000	71.717
15500.000000	72.631
15750.000000	72.782
16000.000000	72.387
16250.000000	71.745
16500.000000	71.205
16750.000000	70.976
17000.000000	70.885
17250.000000	70.499
17500.000000	69.517
17750.000000	67.938
18000.000000	66.089
18250.000000	64.684
18500.000000	64.488
18750.000000	65.298
19000.000000	66.295
19250.000000	66.997
19500.000000	67.280
19750.000000	67.224
