* Measurement data measured by REW V5.20.13
* Source: EXCL: Headset (USB-C to 3.5mm Headphone Jack Adapter), MICROPHONE (Master Volume), 0, volume: 0.260
* Format: 256k Log Swept Sine, 1 sweep at -12.0 dBFS with no timing reference
* Dated: Sep 5, 2023 4:47:44 PM
* REW Settings:
*  C-weighting compensation: Off
*  Target level: 75.0 dB
* Note: Referance Stock
* Measurement: HE400SE REF
* Smoothing: 1/12 octave
* Frequency Step: 1/48 octave
* Start Frequency: 20.000 Hz
*
* Freq(Hz)	SPL(dB)	Phase(degrees)
20.000000	64.416	-5.4131
20.299999	64.627	-8.2216
20.600000	64.744	-11.0038
20.900000	64.797	-13.4524
21.200001	64.834	-15.4357
21.400000	64.874	-16.5288
21.799999	65.020	-18.4327
22.000000	65.127	-19.3540
22.400000	65.395	-21.2483
22.700001	65.631	-22.7041
23.000000	65.900	-24.1412
23.299999	66.206	-25.5677
23.600000	66.549	-27.0662
24.000000	67.022	-29.3633
24.299999	67.346	-31.3022
24.700001	67.690	-33.8399
25.000000	67.898	-35.3116
25.400000	68.192	-36.3106
25.799999	68.633	-36.4302
26.200001	69.254	-36.6631
26.500000	69.765	-37.6067
26.900000	70.353	-40.3084
27.200001	70.642	-43.2500
27.600000	70.768	-47.5005
28.000000	70.619	-50.9980
28.500000	70.208	-53.0641
29.000000	69.850	-52.8502
29.500000	69.730	-52.0097
30.000000	69.764	-52.0467
30.400000	69.785	-52.8324
30.700001	69.766	-53.6403
31.100000	69.704	-54.7200
31.500000	69.639	-55.6461
32.000000	69.615	-56.6476
32.500000	69.691	-57.7212
33.000000	69.861	-59.1232
33.500000	70.086	-60.9802
34.000000	70.314	-63.2124
34.500000	70.511	-65.5396
35.000000	70.676	-67.6329
35.500000	70.835	-69.3500
36.000000	70.999	-70.7792
36.500000	71.156	-72.0577
37.000000	71.289	-73.2125
37.500000	71.392	-74.1904
38.200001	71.514	-75.2695
38.700001	71.601	-75.9827
39.500000	71.739	-77.4241
40.000000	71.801	-78.6281
40.599998	71.827	-80.2798
41.200001	71.803	-81.8610
41.799999	71.772	-83.1394
42.500000	71.790	-84.3539
43.099998	71.854	-85.3992
43.700001	71.936	-86.4420
44.400002	72.058	-87.4894
45.000000	72.201	-88.3807
45.500000	72.322	-89.3094
46.200001	72.430	-90.8333
46.799999	72.449	-91.9600
47.500000	72.444	-92.7558
48.200001	72.474	-93.2545
48.700001	72.514	-93.6479
49.400002	72.573	-94.2900
50.000000	72.624	-94.8431
50.799999	72.709	-95.6038
51.500000	72.784	-96.3526
52.200001	72.846	-97.0767
53.000000	72.917	-97.7686
53.799999	72.998	-98.4844
54.500000	73.054	-99.2204
55.200001	73.092	-99.9458
56.000000	73.148	-100.7178
57.000000	73.282	-101.9805
58.000000	73.433	-104.0163
59.000000	73.487	-106.2459
60.000000	73.527	-107.1920
60.799999	73.721	-107.1309
61.500000	74.006	-107.2914
62.200001	74.308	-107.9602
63.000000	74.604	-109.1130
64.000000	74.893	-110.6977
65.000000	75.106	-112.3298
66.000000	75.247	-114.0684
67.000000	75.315	-115.8995
68.000000	75.329	-117.6992
69.000000	75.319	-119.4234
70.000000	75.298	-121.0899
71.000000	75.267	-122.6546
72.000000	75.230	-124.0601
73.000000	75.194	-125.3084
74.000000	75.158	-126.4188
75.000000	75.126	-127.3942
76.199997	75.102	-128.4139
77.500000	75.102	-129.4279
78.800003	75.115	-130.4699
80.000000	75.112	-131.4740
81.199997	75.078	-132.3850
82.500000	75.024	-133.1324
83.800003	74.990	-133.7089
85.000000	74.987	-134.2719
86.199997	74.999	-134.8992
87.500000	75.027	-135.5843
88.500000	75.059	-136.1149
90.000000	75.106	-136.9631
91.199997	75.126	-137.6383
92.500000	75.133	-138.3073
93.800003	75.133	-138.9515
95.000000	75.128	-139.5613
96.199997	75.117	-140.1686
97.500000	75.109	-140.7956
98.800003	75.111	-141.4071
100.000000	75.120	-141.9894
101.500000	75.130	-142.7431
103.000000	75.133	-143.4801
104.400002	75.136	-144.1289
106.000000	75.152	-144.8575
107.500000	75.176	-145.5816
109.000000	75.187	-146.3187
110.599998	75.164	-146.9599
112.000000	75.128	-147.3756
113.800003	75.083	-148.0149
115.000000	75.060	-148.6725
117.199997	75.040	-150.3929
118.000000	75.033	-151.0731
120.599998	74.993	-152.3654
122.000000	75.001	-152.2814
124.099998	75.051	-151.8959
125.000000	75.067	-151.8075
126.500000	75.076	-151.8254
128.000000	75.074	-152.0288
131.500000	75.087	-152.8523
132.000000	75.092	-152.9743
134.000000	75.113	-153.4281
136.000000	75.127	-153.8376
138.000000	75.135	-154.2377
140.000000	75.135	-154.6284
143.000000	75.127	-155.1697
145.000000	75.122	-155.5385
147.500000	75.121	-156.0421
150.000000	75.129	-156.5536
152.500000	75.146	-157.0547
155.000000	75.160	-157.5419
157.500000	75.164	-158.0129
160.000000	75.159	-158.5147
162.500000	75.149	-159.0799
165.000000	75.140	-159.6219
167.500000	75.138	-160.0311
170.000000	75.143	-160.3359
172.500000	75.145	-160.6275
175.000000	75.147	-160.9539
177.500000	75.158	-161.3257
180.000000	75.173	-161.7028
182.500000	75.181	-162.0301
185.000000	75.183	-162.3128
187.500000	75.183	-162.5887
190.000000	75.183	-162.8659
192.500000	75.184	-163.1426
195.000000	75.185	-163.4178
197.500000	75.185	-163.6728
200.000000	75.186	-163.8927
203.000000	75.190	-164.1288
206.000000	75.197	-164.3791
209.000000	75.206	-164.6765
212.000000	75.218	-165.0304
214.000000	75.227	-165.2780
218.000000	75.243	-165.6797
220.000000	75.248	-165.8162
224.000000	75.254	-166.0732
227.000000	75.258	-166.3131
230.000000	75.259	-166.5781
233.000000	75.256	-166.8353
236.000000	75.251	-167.0638
240.000000	75.252	-167.2847
243.000000	75.265	-167.3827
247.000000	75.294	-167.4825
250.000000	75.318	-167.5648
254.000000	75.358	-167.6959
258.000000	75.412	-167.8678
262.000000	75.482	-168.1086
265.000000	75.539	-168.3569
269.000000	75.611	-168.8297
272.000000	75.654	-169.3015
276.000000	75.690	-170.0309
280.000000	75.706	-170.7861
285.000000	75.708	-171.6848
290.000000	75.691	-172.5166
295.000000	75.647	-173.2742
300.000000	75.570	-173.9568
304.000000	75.499	-174.4617
307.000000	75.458	-174.8074
311.000000	75.417	-175.1709
315.000000	75.378	-175.3886
320.000000	75.322	-175.4772
325.000000	75.273	-175.3913
330.000000	75.238	-175.2038
335.000000	75.229	-175.0240
340.000000	75.252	-174.9152
345.000000	75.293	-174.9329
350.000000	75.336	-175.0879
355.000000	75.373	-175.3273
360.000000	75.402	-175.6156
365.000000	75.423	-175.9527
370.000000	75.434	-176.3357
375.000000	75.440	-176.7607
382.000000	75.446	-177.4470
387.000000	75.440	-178.0003
395.000000	75.375	-178.9228
400.000000	75.290	-179.4545
406.000000	75.155	-179.9196
412.000000	75.008	179.9333
418.000000	74.874	-179.8526
425.000000	74.768	-179.2274
431.000000	74.729	-178.5298
437.000000	74.724	-177.8706
444.000000	74.740	-177.2453
450.000000	74.769	-176.7892
455.000000	74.804	-176.4578
462.000000	74.872	-176.1023
468.000000	74.940	-175.9019
475.000000	75.015	-175.7798
482.000000	75.077	-175.7753
487.000000	75.112	-175.8288
494.000000	75.150	-175.9308
500.000000	75.178	-176.0177
508.000000	75.220	-176.1532
515.000000	75.260	-176.3086
522.000000	75.298	-176.4977
530.000000	75.332	-176.7187
538.000000	75.353	-176.8907
545.000000	75.359	-177.0109
552.000000	75.356	-177.1148
560.000000	75.352	-177.1788
570.000000	75.360	-177.1878
580.000000	75.363	-177.1716
590.000000	75.346	-176.9940
600.000000	75.330	-176.5414
608.000000	75.342	-176.0103
615.000000	75.382	-175.4939
622.000000	75.453	-174.9985
630.000000	75.567	-174.5436
640.000000	75.737	-174.2643
650.000000	75.912	-174.3293
660.000000	76.068	-174.6584
670.000000	76.191	-175.1419
680.000000	76.276	-175.6157
690.000000	76.344	-175.9379
700.000000	76.426	-176.1127
710.000000	76.542	-176.2714
720.000000	76.688	-176.5696
730.000000	76.841	-177.1152
740.000000	76.978	-177.9025
750.000000	77.087	-178.8309
762.000000	77.190	-179.9940
775.000000	77.283	178.7193
788.000000	77.363	177.2942
800.000000	77.401	175.8047
812.000000	77.382	174.3219
825.000000	77.312	173.0051
838.000000	77.234	172.0096
850.000000	77.173	171.2264
862.000000	77.120	170.4641
875.000000	77.058	169.5981
885.000000	76.998	168.9239
900.000000	76.881	168.0142
912.000000	76.775	167.4545
925.000000	76.663	167.0481
938.000000	76.567	166.7675
950.000000	76.490	166.5076
962.000000	76.409	166.2214
975.000000	76.304	166.0035
988.000000	76.197	165.9948
1000.000000	76.121	166.1672
1015.000000	76.079	166.4544
1030.000000	76.080	166.5688
1044.000000	76.089	166.4679
1060.000000	76.093	166.2131
1075.000000	76.094	165.8986
1090.000000	76.093	165.5067
1106.000000	76.090	165.0069
1120.000000	76.090	164.4636
1138.000000	76.083	163.5366
1150.000000	76.063	162.7655
1172.000000	75.972	161.1060
1180.000000	75.918	160.4604
1206.000000	75.651	158.2125
1220.000000	75.407	157.1487
1241.000000	74.933	156.6013
1250.000000	74.733	156.7977
1265.000000	74.455	157.4163
1280.000000	74.244	158.0167
1315.000000	73.760	158.8640
1320.000000	73.675	159.0452
1340.000000	73.325	160.2440
1360.000000	73.027	162.1188
1380.000000	72.838	164.1688
1400.000000	72.724	165.8662
1430.000000	72.519	167.9969
1450.000000	72.350	169.7874
1475.000000	72.191	172.6219
1500.000000	72.168	175.7897
1525.000000	72.300	178.5992
1550.000000	72.503	-179.5458
1575.000000	72.654	-178.6826
1600.000000	72.664	-178.0760
1625.000000	72.601	-176.7642
1650.000000	72.611	-174.9333
1675.000000	72.692	-173.4198
1700.000000	72.742	-172.3601
1725.000000	72.732	-171.2679
1750.000000	72.698	-169.9050
1775.000000	72.659	-168.2484
1800.000000	72.630	-166.2449
1825.000000	72.640	-163.8730
1850.000000	72.726	-161.3125
1875.000000	72.883	-158.8875
1900.000000	73.075	-156.6940
1925.000000	73.292	-154.6172
1950.000000	73.545	-152.7097
1975.000000	73.810	-151.1572
2000.000000	74.047	-149.9022
2030.000000	74.291	-148.4170
2060.000000	74.532	-146.7697
2090.000000	74.787	-145.0491
2120.000000	75.066	-143.2282
2140.000000	75.278	-141.9906
2180.000000	75.753	-139.8038
2200.000000	75.992	-138.9193
2240.000000	76.435	-137.3634
2270.000000	76.749	-136.0418
2300.000000	77.099	-134.4299
2330.000000	77.525	-132.6768
2360.000000	78.030	-131.0599
2400.000000	78.785	-129.5092
2430.000000	79.370	-128.9637
2470.000000	80.114	-129.0079
2500.000000	80.634	-129.3646
2540.000000	81.324	-130.0072
2580.000000	82.007	-131.2038
2620.000000	82.611	-132.9429
2650.000000	83.033	-134.2875
2690.000000	83.587	-136.3036
2720.000000	83.958	-138.1315
2760.000000	84.364	-140.6758
2800.000000	84.711	-142.8879
2850.000000	85.187	-145.0555
2900.000000	85.744	-147.4691
2950.000000	86.301	-150.4786
3000.000000	86.850	-154.1292
3040.000000	87.242	-157.7364
3070.000000	87.470	-160.8068
3110.000000	87.669	-165.0687
3150.000000	87.777	-169.1843
3200.000000	87.838	-174.1144
3250.000000	87.809	-178.9674
3300.000000	87.657	176.4025
3350.000000	87.375	172.4696
3400.000000	87.018	169.6234
3450.000000	86.677	167.9460
3500.000000	86.457	166.9805
3550.000000	86.384	165.9652
3600.000000	86.396	164.3001
3650.000000	86.386	161.8532
3700.000000	86.277	158.9754
3750.000000	86.047	156.2116
3820.000000	85.582	153.2687
3870.000000	85.209	151.9686
3950.000000	84.644	151.0809
4000.000000	84.350	151.0793
4060.000000	84.089	151.3179
4120.000000	83.922	151.4774
4180.000000	83.821	151.3005
4250.000000	83.723	150.4141
4310.000000	83.572	149.1790
4370.000000	83.311	148.0581
4440.000000	82.915	147.6050
4500.000000	82.592	148.0123
4550.000000	82.379	148.6645
4620.000000	82.179	149.5771
4680.000000	82.059	150.0950
4750.000000	81.916	150.4330
4820.000000	81.748	150.8065
4870.000000	81.627	151.2216
4940.000000	81.485	151.9323
5000.000000	81.389	152.5557
5080.000000	81.296	153.3783
5150.000000	81.247	153.9650
5220.000000	81.205	154.3612
5300.000000	81.154	154.7405
5380.000000	81.126	155.0192
5450.000000	81.114	155.0048
5520.000000	81.087	154.7088
5600.000000	81.012	154.0967
5700.000000	80.819	153.2394
5800.000000	80.523	152.7769
5900.000000	80.183	152.9857
6000.000000	79.861	153.7013
6080.000000	79.618	154.4694
6150.000000	79.404	155.3260
6220.000000	79.199	156.4606
6300.000000	79.010	158.0277
6400.000000	78.859	159.9813
6500.000000	78.755	161.7144
6600.000000	78.666	163.3976
6700.000000	78.607	165.1167
6800.000000	78.599	166.8043
6900.000000	78.641	168.1925
7000.000000	78.664	169.2293
7100.000000	78.658	170.5704
7200.000000	78.765	172.3043
7300.000000	79.001	173.1813
7400.000000	79.140	172.7416
7500.000000	79.060	172.4788
7620.000000	78.952	174.1773
7750.000000	79.304	177.3423
7880.000000	80.174	178.5632
8000.000000	81.009	175.6601
8120.000000	81.520	169.1776
8250.000000	81.565	160.2212
8380.000000	81.089	151.7189
8500.000000	80.342	145.4874
8620.000000	79.503	140.1999
8750.000000	78.479	134.6757
8850.000000	77.464	131.4341
9000.000000	75.566	130.1357
9120.000000	73.963	131.4729
9250.000000	72.286	134.2779
9380.000000	70.655	138.6151
9500.000000	69.197	143.9988
9620.000000	67.815	150.3263
9750.000000	66.347	158.6259
9880.000000	64.776	171.0021
10000.000000	63.465	-172.4726
10150.000000	63.032	-148.5980
10300.000000	64.344	-126.9572
10440.000000	66.414	-111.1226
10600.000000	69.021	-98.7946
10750.000000	71.299	-93.3151
10900.000000	73.189	-93.5966
11060.000000	74.661	-98.7601
11200.000000	75.501	-105.4330
11380.000000	76.070	-114.5064
11500.000000	76.176	-119.9263
11720.000000	76.014	-126.8134
11800.000000	75.943	-128.3309
12060.000000	75.897	-131.9276
12200.000000	75.993	-133.1184
12410.000000	76.627	-134.5553
12500.000000	77.077	-136.2534
12650.000000	77.812	-142.1405
12800.000000	78.256	-151.9422
13150.000000	77.466	179.1536
13200.000000	77.149	175.3225
13400.000000	75.506	161.8176
13600.000000	73.405	150.5003
13800.000000	70.925	139.1761
14000.000000	68.153	122.3946
14300.000000	64.491	68.6602
14500.000000	64.357	12.9095
14750.000000	66.349	-55.9188
15000.000000	67.645	-107.3719
15250.000000	67.403	-140.4145
15500.000000	65.805	-155.5652
15750.000000	63.485	-154.0975
16000.000000	61.868	-143.2907
16250.000000	62.380	-132.0388
16500.000000	64.555	-124.9765
16750.000000	66.957	-127.2581
17000.000000	68.664	-141.8982
17250.000000	69.410	-165.4718
17500.000000	69.217	167.8663
17750.000000	68.239	142.3267
18000.000000	66.699	119.7485
18250.000000	64.666	102.8989
18500.000000	62.194	95.9769
18750.000000	59.925	97.6660
19000.000000	59.305	97.9070
19250.000000	60.363	87.4451
19500.000000	61.702	66.1884
19750.000000	62.659	41.8151
