* Measurement data measured by REW V5.20.13
* Source: EXCL: Headset (USB-C to 3.5mm Headphone Jack Adapter), MICROPHONE (Master Volume), 0, volume: 0.260
* Format: 256k Log Swept Sine, 1 sweep at -12.0 dBFS with no timing reference
* Dated: Dec 28, 2023 2:34:08 PM
* REW Settings:
*  C-weighting compensation: Off
*  Target level: 75.0 dB
* Note: Headamame Capra Tuned
* Measurement: Headamame ZMF PerfL
* Smoothing: 1/12 octave
* Frequency Step: 1/48 octave
* Start Frequency: 20.000 Hz
*
* Freq(Hz)	SPL(dB)	Phase(degrees)
20.000000	66.395	167.2579
20.299999	66.636	165.5506
20.600000	66.872	163.8602
20.900000	67.099	162.1759
21.200001	67.316	160.4994
21.400000	67.454	159.3898
21.799999	67.716	157.1970
22.000000	67.840	156.1152
22.400000	68.077	153.9820
22.700001	68.246	152.4106
23.000000	68.409	150.8660
23.299999	68.569	149.3482
23.600000	68.726	147.8518
24.000000	68.935	145.8694
24.299999	69.090	144.3764
24.700001	69.290	142.3714
25.000000	69.432	140.8748
25.400000	69.609	138.9352
25.799999	69.779	137.1149
26.200001	69.951	135.4329
26.500000	70.086	134.2415
26.900000	70.276	132.6893
27.200001	70.422	131.5167
27.600000	70.613	129.9171
28.000000	70.790	128.2893
28.500000	70.988	126.2787
29.000000	71.165	124.3547
29.500000	71.329	122.5058
30.000000	71.485	120.6693
30.400000	71.598	119.1873
30.700001	71.675	118.0798
31.100000	71.769	116.6390
31.500000	71.861	115.2674
32.000000	71.985	113.6340
32.500000	72.131	111.9940
33.000000	72.287	110.2344
33.500000	72.432	108.3507
34.000000	72.552	106.4734
34.500000	72.652	104.7565
35.000000	72.749	103.2606
35.500000	72.857	101.9254
36.000000	72.974	100.6406
36.500000	73.088	99.3387
37.000000	73.189	98.0203
37.500000	73.274	96.7079
38.200001	73.374	94.8723
38.700001	73.436	93.5272
39.500000	73.520	91.2884
40.000000	73.571	89.8487
40.599998	73.638	88.0834
41.200001	73.715	86.2872
41.799999	73.798	84.5141
42.500000	73.903	82.5687
43.099998	73.995	81.0658
43.700001	74.082	79.7669
44.400002	74.175	78.5262
45.000000	74.240	77.6073
45.500000	74.270	76.8788
46.200001	74.259	75.9199
46.799999	74.208	75.1223
47.500000	74.117	73.9875
48.200001	73.988	72.4009
48.700001	73.883	70.8911
49.400002	73.726	67.9469
50.000000	73.516	64.6933
50.799999	72.999	61.2871
51.500000	72.509	61.6312
52.200001	72.477	64.4264
53.000000	73.069	66.1941
53.799999	73.712	64.5106
54.500000	74.085	62.0483
55.200001	74.342	60.1003
56.000000	74.556	58.6611
57.000000	74.695	57.6304
58.000000	74.693	57.0954
59.000000	74.598	56.9066
60.000000	74.548	56.5661
60.799999	74.558	55.5452
61.500000	74.565	54.1194
62.200001	74.562	52.5174
63.000000	74.572	50.7512
64.000000	74.620	48.7751
65.000000	74.682	47.1321
66.000000	74.726	45.8561
67.000000	74.730	44.8672
68.000000	74.686	44.0444
69.000000	74.606	43.2910
70.000000	74.512	42.5244
71.000000	74.423	41.6935
72.000000	74.344	40.8794
73.000000	74.284	40.2443
74.000000	74.256	39.8430
75.000000	74.257	39.5966
76.199997	74.273	39.3687
77.500000	74.281	39.1094
78.800003	74.277	38.8165
80.000000	74.279	38.5114
81.199997	74.301	38.1898
82.500000	74.357	37.8517
83.800003	74.443	37.5052
85.000000	74.530	37.1632
86.199997	74.614	36.7984
87.500000	74.698	36.3605
88.500000	74.760	35.9634
90.000000	74.851	35.1912
91.199997	74.919	34.4171
92.500000	74.987	33.4895
93.800003	75.051	32.5307
95.000000	75.102	31.6547
96.199997	75.142	30.8188
97.500000	75.168	29.9710
98.800003	75.178	29.1771
100.000000	75.180	28.4523
101.500000	75.181	27.4833
103.000000	75.182	26.4391
104.400002	75.182	25.4733
106.000000	75.177	24.4821
107.500000	75.164	23.6733
109.000000	75.142	22.9210
110.599998	75.111	22.1261
112.000000	75.081	21.4450
113.800003	75.031	20.7076
115.000000	74.979	20.4177
117.199997	74.850	20.5506
118.000000	74.812	20.7700
120.599998	74.796	20.9719
122.000000	74.819	20.3782
124.099998	74.850	19.1488
125.000000	74.870	18.6671
126.500000	74.912	17.9973
128.000000	74.954	17.4813
131.500000	75.022	16.4596
132.000000	75.029	16.2996
134.000000	75.058	15.6198
136.000000	75.092	14.9213
138.000000	75.129	14.2286
140.000000	75.161	13.5385
143.000000	75.199	12.4678
145.000000	75.214	11.7213
147.500000	75.221	10.7653
150.000000	75.216	9.8058
152.500000	75.204	8.8984
155.000000	75.187	8.0693
157.500000	75.161	7.2642
160.000000	75.124	6.3973
162.500000	75.077	5.4776
165.000000	75.028	4.6117
167.500000	74.985	3.8859
170.000000	74.952	3.2532
172.500000	74.925	2.6279
175.000000	74.898	2.0072
177.500000	74.866	1.4274
180.000000	74.825	0.8822
182.500000	74.773	0.3484
185.000000	74.720	-0.1771
187.500000	74.671	-0.6893
190.000000	74.627	-1.1851
192.500000	74.582	-1.6796
195.000000	74.535	-2.1832
197.500000	74.487	-2.6783
200.000000	74.440	-3.1429
203.000000	74.386	-3.6628
206.000000	74.330	-4.1722
209.000000	74.268	-4.6703
212.000000	74.201	-5.1371
214.000000	74.157	-5.4292
218.000000	74.073	-5.9792
220.000000	74.033	-6.2415
224.000000	73.950	-6.7371
227.000000	73.884	-7.0750
230.000000	73.817	-7.3800
233.000000	73.750	-7.6592
236.000000	73.683	-7.9248
240.000000	73.596	-8.2617
243.000000	73.533	-8.4930
247.000000	73.447	-8.7615
250.000000	73.378	-8.9335
254.000000	73.286	-9.1337
258.000000	73.199	-9.3004
262.000000	73.116	-9.4189
265.000000	73.055	-9.4675
269.000000	72.975	-9.4647
272.000000	72.919	-9.4132
276.000000	72.857	-9.3052
280.000000	72.809	-9.1945
285.000000	72.765	-9.1067
290.000000	72.732	-9.1141
295.000000	72.704	-9.2358
300.000000	72.673	-9.4152
304.000000	72.640	-9.5452
307.000000	72.609	-9.6343
311.000000	72.562	-9.7419
315.000000	72.511	-9.8185
320.000000	72.446	-9.8599
325.000000	72.384	-9.8513
330.000000	72.325	-9.8010
335.000000	72.269	-9.7250
340.000000	72.219	-9.6221
345.000000	72.179	-9.4831
350.000000	72.154	-9.3252
355.000000	72.140	-9.1936
360.000000	72.131	-9.1255
365.000000	72.121	-9.1277
370.000000	72.107	-9.1846
375.000000	72.086	-9.2776
382.000000	72.045	-9.4245
387.000000	72.010	-9.4999
395.000000	71.954	-9.5375
400.000000	71.924	-9.5297
406.000000	71.896	-9.5348
412.000000	71.872	-9.5763
418.000000	71.847	-9.6249
425.000000	71.816	-9.6398
431.000000	71.790	-9.6359
437.000000	71.766	-9.6501
444.000000	71.740	-9.6902
450.000000	71.721	-9.7360
455.000000	71.709	-9.7848
462.000000	71.699	-9.8933
468.000000	71.696	-10.0554
475.000000	71.693	-10.3553
482.000000	71.685	-10.7925
487.000000	71.672	-11.1815
494.000000	71.638	-11.7949
500.000000	71.592	-12.3578
508.000000	71.505	-13.1284
515.000000	71.405	-13.7811
522.000000	71.290	-14.4030
530.000000	71.144	-15.1070
538.000000	70.977	-15.8139
545.000000	70.810	-16.4061
552.000000	70.618	-16.9606
560.000000	70.362	-17.5049
570.000000	69.992	-17.9428
580.000000	69.581	-18.0875
590.000000	69.120	-17.8892
600.000000	68.598	-17.1707
608.000000	68.141	-16.0648
615.000000	67.726	-14.6322
622.000000	67.314	-12.7361
630.000000	66.867	-10.0085
640.000000	66.374	-5.8320
650.000000	65.976	-0.9006
660.000000	65.708	4.7475
670.000000	65.623	10.9790
680.000000	65.761	17.3680
690.000000	66.109	23.4703
700.000000	66.640	29.0436
710.000000	67.321	33.8595
720.000000	68.101	37.6789
730.000000	68.921	40.3956
740.000000	69.735	42.0258
750.000000	70.509	42.6771
762.000000	71.358	42.4025
775.000000	72.163	41.1187
788.000000	72.846	39.1631
800.000000	73.381	36.9857
812.000000	73.830	34.5370
825.000000	74.220	31.6662
838.000000	74.508	28.6934
850.000000	74.684	25.9982
862.000000	74.780	23.5261
875.000000	74.820	21.3186
885.000000	74.843	19.9922
900.000000	74.909	18.2834
912.000000	74.974	16.8150
925.000000	75.012	15.0851
938.000000	75.003	13.4222
950.000000	74.968	12.0770
962.000000	74.924	10.9046
975.000000	74.874	9.7458
988.000000	74.818	8.6400
1000.000000	74.754	7.6655
1015.000000	74.652	6.5598
1030.000000	74.526	5.6403
1044.000000	74.396	4.9794
1060.000000	74.245	4.4478
1075.000000	74.107	4.1340
1090.000000	73.976	3.9697
1106.000000	73.846	3.9280
1120.000000	73.740	3.9788
1138.000000	73.612	4.1522
1150.000000	73.530	4.3488
1172.000000	73.396	4.8959
1180.000000	73.354	5.1467
1206.000000	73.251	6.1002
1220.000000	73.220	6.6704
1241.000000	73.211	7.5082
1250.000000	73.221	7.8188
1265.000000	73.250	8.2078
1280.000000	73.277	8.4070
1315.000000	73.253	8.5911
1320.000000	73.241	8.6490
1340.000000	73.190	9.0022
1360.000000	73.142	9.4802
1380.000000	73.096	10.0553
1400.000000	73.057	10.7306
1430.000000	73.018	11.8300
1450.000000	72.996	12.6172
1475.000000	72.976	13.7607
1500.000000	72.984	15.0876
1525.000000	73.034	16.5046
1550.000000	73.134	17.8854
1575.000000	73.278	19.0721
1600.000000	73.443	19.9048
1625.000000	73.586	20.3143
1650.000000	73.654	20.5027
1675.000000	73.638	21.0204
1700.000000	73.612	22.3022
1725.000000	73.675	24.2388
1750.000000	73.879	26.3322
1775.000000	74.208	28.0244
1800.000000	74.598	28.9268
1825.000000	74.972	28.9401
1850.000000	75.272	28.2715
1875.000000	75.474	27.3226
1900.000000	75.599	26.4579
1925.000000	75.681	25.8253
1950.000000	75.744	25.3902
1975.000000	75.797	25.0927
2000.000000	75.841	24.9251
2030.000000	75.891	24.9198
2060.000000	75.955	25.1039
2090.000000	76.046	25.3503
2120.000000	76.158	25.4839
2140.000000	76.234	25.4537
2180.000000	76.350	25.1443
2200.000000	76.380	24.9495
2240.000000	76.383	24.7244
2270.000000	76.347	24.8294
2300.000000	76.290	25.2499
2330.000000	76.225	26.0451
2360.000000	76.169	27.2598
2400.000000	76.140	29.5842
2430.000000	76.187	31.8862
2470.000000	76.426	35.6796
2500.000000	76.813	38.8596
2540.000000	77.660	42.6903
2580.000000	78.756	44.6280
2620.000000	79.821	43.6371
2650.000000	80.461	41.1340
2690.000000	81.044	36.4991
2720.000000	81.297	32.8054
2760.000000	81.455	28.2865
2800.000000	81.483	24.5287
2850.000000	81.430	20.9254
2900.000000	81.356	18.3571
2950.000000	81.336	16.5188
3000.000000	81.416	14.7818
3040.000000	81.522	12.9658
3070.000000	81.584	11.2574
3110.000000	81.603	8.6632
3150.000000	81.530	6.0281
3200.000000	81.334	3.1158
3250.000000	81.076	0.8036
3300.000000	80.802	-1.0079
3350.000000	80.527	-2.4889
3400.000000	80.247	-3.7155
3450.000000	79.961	-4.6630
3500.000000	79.678	-5.3167
3550.000000	79.415	-5.7560
3600.000000	79.171	-6.0964
3650.000000	78.938	-6.3970
3700.000000	78.706	-6.6540
3750.000000	78.470	-6.8354
3820.000000	78.136	-6.9005
3870.000000	77.906	-6.8141
3950.000000	77.573	-6.6807
4000.000000	77.373	-6.7867
4060.000000	77.092	-7.1471
4120.000000	76.714	-7.4631
4180.000000	76.222	-7.1414
4250.000000	75.577	-5.3043
4310.000000	75.087	-2.5336
4370.000000	74.744	0.7551
4440.000000	74.518	4.4771
4500.000000	74.404	7.3336
4550.000000	74.326	9.5737
4620.000000	74.224	12.7583
4680.000000	74.158	15.7045
4750.000000	74.139	19.4620
4820.000000	74.214	23.5229
4870.000000	74.343	26.5753
4940.000000	74.663	31.0257
5000.000000	75.116	34.9680
5080.000000	76.093	40.2369
5150.000000	77.364	44.2033
5220.000000	78.876	45.9094
5300.000000	80.462	42.8751
5380.000000	81.575	34.7285
5450.000000	82.115	25.1770
5520.000000	82.258	14.8265
5600.000000	81.951	3.5817
5700.000000	80.988	-7.5159
5800.000000	79.640	-14.4196
5900.000000	78.203	-17.9110
6000.000000	76.863	-19.4893
6080.000000	75.870	-20.0008
6150.000000	75.033	-19.9556
6220.000000	74.214	-19.4081
6300.000000	73.308	-18.1847
6400.000000	72.236	-15.8767
6500.000000	71.238	-12.7627
6600.000000	70.335	-8.8289
6700.000000	69.578	-4.1722
6800.000000	69.043	0.7980
6900.000000	68.768	5.3001
7000.000000	68.689	8.5396
7100.000000	68.676	10.1938
7200.000000	68.621	10.3750
7300.000000	68.451	9.3115
7400.000000	68.087	7.4517
7500.000000	67.464	5.7170
7620.000000	66.367	5.5421
7750.000000	64.969	9.0634
7880.000000	63.828	14.7151
8000.000000	63.122	19.0929
8120.000000	62.488	22.4572
8250.000000	61.717	26.3210
8380.000000	60.902	31.7129
8500.000000	60.374	38.6678
8620.000000	60.489	46.4978
8750.000000	61.452	52.4011
8850.000000	62.410	52.4914
9000.000000	63.462	43.9189
9120.000000	63.681	31.4053
9250.000000	63.220	15.5538
9380.000000	62.066	0.5110
9500.000000	60.480	-10.6321
9620.000000	58.569	-18.5327
9750.000000	56.438	-23.9752
9880.000000	54.748	-27.4526
10000.000000	54.153	-30.3221
10150.000000	55.069	-34.8788
10300.000000	57.347	-40.7437
10440.000000	60.051	-47.4860
10600.000000	63.193	-58.3969
10750.000000	65.730	-74.3747
10900.000000	67.526	-97.5637
11060.000000	68.354	-128.5585
11200.000000	68.067	-156.3801
11380.000000	66.435	174.6110
11500.000000	64.706	162.6705
11720.000000	60.561	162.4442
11800.000000	58.849	170.5363
12060.000000	54.270	-144.8715
12200.000000	54.024	-125.6980
12410.000000	55.448	-116.2224
12500.000000	56.053	-117.4623
12650.000000	56.774	-123.2542
12800.000000	57.117	-131.3885
13150.000000	56.745	-154.1387
13200.000000	56.582	-157.8541
13400.000000	55.647	-174.4753
13600.000000	54.220	165.6236
13800.000000	52.411	141.3893
14000.000000	50.620	111.5447
14300.000000	49.244	60.6992
14500.000000	49.523	30.5773
14750.000000	50.713	2.9775
15000.000000	51.933	-18.3131
15250.000000	52.089	-37.7104
15500.000000	50.926	-48.9235
15750.000000	49.199	-48.1432
16000.000000	48.243	-41.9492
16250.000000	48.400	-38.6536
16500.000000	48.786	-40.4535
16750.000000	48.910	-45.0070
17000.000000	48.870	-50.6016
17250.000000	48.672	-57.9691
17500.000000	48.051	-65.9367
17750.000000	47.013	-71.3782
18000.000000	46.007	-73.4482
18250.000000	45.689	-74.2303
18500.000000	46.404	-77.0453
18750.000000	47.865	-85.2211
19000.000000	49.504	-101.3771
19250.000000	50.865	-126.3926
19500.000000	51.715	-157.6289
19750.000000	52.067	172.0656
