* Measurement data measured by REW V5.20.13
* Source: EXCL: Headset (USB-C to 3.5mm Headphone Jack Adapter), MICROPHONE (Master Volume), 0, volume: 0.260
* Format: 256k Log Swept Sine, 1 sweep at -12.0 dBFS with no timing reference
* Dated: Dec 29, 2023 4:34:07 PM
* REW Settings:
*  C-weighting compensation: Off
*  Target level: 75.0 dB
* Note: Headamame Open Dekoni EV TH900 pads 1 layer of micropore on front
* Measurement: HO DKNI Pads 40mm Peerles Dec 29
* Smoothing: 1/12 octave
* Frequency Step: 1/48 octave
* Start Frequency: 20.000 Hz
*
* Freq(Hz)	SPL(dB)	Phase(degrees)
20.000000	65.134	173.2449
20.299999	65.381	171.2911
20.600000	65.603	169.3166
20.900000	65.802	167.4150
21.200001	65.985	165.6638
21.400000	66.104	164.6000
21.799999	66.354	162.6862
22.000000	66.489	161.8001
22.400000	66.779	160.0663
22.700001	67.006	158.7093
23.000000	67.231	157.2637
23.299999	67.443	155.7336
23.600000	67.635	154.1579
24.000000	67.854	152.0889
24.299999	67.998	150.6302
24.700001	68.174	148.8621
25.000000	68.304	147.6575
25.400000	68.486	146.1532
25.799999	68.676	144.6760
26.200001	68.867	143.1625
26.500000	69.007	141.9961
26.900000	69.185	140.4194
27.200001	69.312	139.2380
27.600000	69.474	137.6804
28.000000	69.630	136.1466
28.500000	69.816	134.2648
29.000000	69.993	132.4421
29.500000	70.165	130.7034
30.000000	70.339	129.0394
30.400000	70.480	127.7308
30.700001	70.586	126.7461
31.100000	70.723	125.4226
31.500000	70.851	124.1004
32.000000	70.999	122.4874
32.500000	71.137	120.9492
33.000000	71.271	119.4824
33.500000	71.402	118.0615
34.000000	71.530	116.6670
34.500000	71.654	115.2939
35.000000	71.774	113.9404
35.500000	71.890	112.5990
36.000000	72.001	111.2654
36.500000	72.103	109.9519
37.000000	72.198	108.6855
37.500000	72.290	107.4862
38.200001	72.422	105.8976
38.700001	72.521	104.7828
39.500000	72.677	102.9794
40.000000	72.769	101.8541
40.599998	72.875	100.5238
41.200001	72.978	99.2048
41.799999	73.075	97.8906
42.500000	73.180	96.3957
43.099998	73.267	95.1691
43.700001	73.357	93.9666
44.400002	73.461	92.5508
45.000000	73.544	91.3397
45.500000	73.608	90.3561
46.200001	73.694	89.0183
46.799999	73.763	87.8880
47.500000	73.835	86.5986
48.200001	73.896	85.3905
48.700001	73.939	84.5911
49.400002	74.005	83.5323
50.000000	74.068	82.6360
50.799999	74.153	81.4079
51.500000	74.218	80.3297
52.200001	74.275	79.3163
53.000000	74.338	78.2567
53.799999	74.396	77.2620
54.500000	74.437	76.4546
55.200001	74.469	75.7325
56.000000	74.499	74.9907
57.000000	74.521	74.1155
58.000000	74.518	73.3809
59.000000	74.543	72.9766
60.000000	74.675	72.4211
60.799999	74.813	71.3387
61.500000	74.897	70.0195
62.200001	74.942	68.6712
63.000000	74.977	67.2990
64.000000	75.030	65.7743
65.000000	75.086	64.3634
66.000000	75.133	63.1086
67.000000	75.174	62.0164
68.000000	75.210	61.0116
69.000000	75.240	60.0321
70.000000	75.261	59.0656
71.000000	75.278	58.1161
72.000000	75.295	57.1823
73.000000	75.313	56.2772
74.000000	75.333	55.4282
75.000000	75.354	54.6426
76.199997	75.379	53.7684
77.500000	75.401	52.8987
78.800003	75.420	52.0731
80.000000	75.434	51.3054
81.199997	75.441	50.5383
82.500000	75.445	49.7463
83.800003	75.453	49.0047
85.000000	75.466	48.3349
86.199997	75.480	47.6663
87.500000	75.490	46.9639
88.500000	75.493	46.4624
90.000000	75.495	45.8070
91.199997	75.501	45.3564
92.500000	75.514	44.8843
93.800003	75.527	44.3937
95.000000	75.532	43.9668
96.199997	75.535	43.6123
97.500000	75.547	43.2944
98.800003	75.570	42.9899
100.000000	75.600	42.6899
101.500000	75.643	42.2886
103.000000	75.694	41.8579
104.400002	75.742	41.4238
106.000000	75.788	40.9185
107.500000	75.821	40.4692
109.000000	75.852	40.0220
110.599998	75.883	39.5324
112.000000	75.913	39.1348
113.800003	75.959	38.7113
115.000000	75.991	38.4916
117.199997	76.047	38.2057
118.000000	76.069	38.1001
120.599998	76.151	37.3989
122.000000	76.189	36.7878
124.099998	76.244	35.8472
125.000000	76.270	35.4800
126.500000	76.312	34.9374
128.000000	76.349	34.4717
131.500000	76.416	33.4678
132.000000	76.426	33.3184
134.000000	76.466	32.7036
136.000000	76.508	32.0744
138.000000	76.543	31.4366
140.000000	76.566	30.8087
143.000000	76.596	29.9667
145.000000	76.625	29.4753
147.500000	76.670	28.8529
150.000000	76.716	28.1824
152.500000	76.759	27.5291
155.000000	76.799	26.9257
157.500000	76.835	26.3011
160.000000	76.868	25.6177
162.500000	76.898	24.9286
165.000000	76.922	24.2821
167.500000	76.931	23.7008
170.000000	76.932	23.1714
172.500000	76.935	22.6578
175.000000	76.943	22.1479
177.500000	76.955	21.6486
180.000000	76.968	21.1656
182.500000	76.978	20.7057
185.000000	76.987	20.2487
187.500000	76.995	19.7697
190.000000	77.002	19.2815
192.500000	77.010	18.8101
195.000000	77.018	18.3588
197.500000	77.025	17.9138
200.000000	77.028	17.4792
203.000000	77.030	16.9957
206.000000	77.035	16.5483
209.000000	77.044	16.1035
212.000000	77.052	15.6458
214.000000	77.054	15.3378
218.000000	77.051	14.7415
220.000000	77.047	14.4679
224.000000	77.042	13.9890
227.000000	77.042	13.6802
230.000000	77.046	13.3961
233.000000	77.052	13.1222
236.000000	77.060	12.8463
240.000000	77.075	12.4528
243.000000	77.086	12.1293
247.000000	77.098	11.6677
250.000000	77.107	11.3135
254.000000	77.123	10.8547
258.000000	77.141	10.4192
262.000000	77.157	9.9901
265.000000	77.166	9.6639
269.000000	77.171	9.2203
272.000000	77.173	8.8818
276.000000	77.175	8.4307
280.000000	77.177	7.9906
285.000000	77.179	7.4611
290.000000	77.183	6.9454
295.000000	77.191	6.4200
300.000000	77.196	5.8891
304.000000	77.196	5.4705
307.000000	77.193	5.1450
311.000000	77.182	4.6809
315.000000	77.153	4.2174
320.000000	77.092	3.7925
325.000000	77.035	3.6691
330.000000	77.021	3.6879
335.000000	77.041	3.6044
340.000000	77.067	3.3651
345.000000	77.085	3.0229
350.000000	77.095	2.6394
355.000000	77.096	2.2517
360.000000	77.094	1.8690
365.000000	77.088	1.4877
370.000000	77.080	1.1085
375.000000	77.069	0.7384
382.000000	77.051	0.2603
387.000000	77.035	-0.0368
395.000000	77.013	-0.4445
400.000000	77.004	-0.6778
406.000000	76.998	-0.9629
412.000000	76.997	-1.2751
418.000000	76.995	-1.6160
425.000000	76.987	-2.0352
431.000000	76.974	-2.4169
437.000000	76.954	-2.8143
444.000000	76.915	-3.2357
450.000000	76.874	-3.4806
455.000000	76.844	-3.5948
462.000000	76.819	-3.7063
468.000000	76.812	-3.8325
475.000000	76.809	-4.0424
482.000000	76.807	-4.3060
487.000000	76.802	-4.5162
494.000000	76.792	-4.8267
500.000000	76.780	-5.0938
508.000000	76.760	-5.4404
515.000000	76.740	-5.7421
522.000000	76.716	-6.0496
530.000000	76.684	-6.4021
538.000000	76.644	-6.7244
545.000000	76.604	-6.9498
552.000000	76.562	-7.1162
560.000000	76.517	-7.2515
570.000000	76.468	-7.3671
580.000000	76.426	-7.4436
590.000000	76.393	-7.5045
600.000000	76.369	-7.5837
608.000000	76.354	-7.6719
615.000000	76.342	-7.7666
622.000000	76.330	-7.8740
630.000000	76.314	-8.0039
640.000000	76.291	-8.1623
650.000000	76.267	-8.3080
660.000000	76.241	-8.4378
670.000000	76.215	-8.5494
680.000000	76.192	-8.6514
690.000000	76.173	-8.7538
700.000000	76.158	-8.8663
710.000000	76.145	-9.0034
720.000000	76.134	-9.1761
730.000000	76.121	-9.3928
740.000000	76.103	-9.6536
750.000000	76.076	-9.9421
762.000000	76.031	-10.3021
775.000000	75.965	-10.6682
788.000000	75.882	-10.9568
800.000000	75.797	-11.1061
812.000000	75.713	-11.1193
825.000000	75.639	-11.0582
838.000000	75.582	-11.0787
850.000000	75.519	-11.2507
862.000000	75.419	-11.4559
875.000000	75.265	-11.3955
885.000000	75.144	-11.0178
900.000000	75.013	-10.1096
912.000000	74.955	-9.3204
925.000000	74.924	-8.4546
938.000000	74.931	-7.6049
950.000000	74.972	-6.9482
962.000000	75.032	-6.4962
975.000000	75.103	-6.2602
988.000000	75.163	-6.2585
1000.000000	75.199	-6.3804
1015.000000	75.220	-6.5840
1030.000000	75.228	-6.8306
1044.000000	75.219	-7.1318
1060.000000	75.175	-7.4991
1075.000000	75.100	-7.6938
1090.000000	75.019	-7.6244
1106.000000	74.960	-7.3379
1120.000000	74.945	-7.0987
1138.000000	74.961	-7.0563
1150.000000	74.978	-7.2456
1172.000000	74.995	-8.1238
1180.000000	74.988	-8.6517
1206.000000	74.827	-11.1407
1220.000000	74.588	-12.6026
1241.000000	73.998	-13.7106
1250.000000	73.688	-13.5095
1265.000000	73.165	-12.2273
1280.000000	72.706	-10.0205
1315.000000	72.087	-3.5361
1320.000000	72.043	-2.6317
1340.000000	71.921	0.8139
1360.000000	71.856	4.2258
1380.000000	71.881	7.6599
1400.000000	72.003	10.7125
1430.000000	72.199	14.0834
1450.000000	72.234	16.1678
1475.000000	72.249	19.7157
1500.000000	72.440	24.2826
1525.000000	72.891	28.5327
1550.000000	73.395	31.3355
1575.000000	73.799	33.6527
1600.000000	74.275	36.6425
1625.000000	74.975	39.6431
1650.000000	75.837	41.5320
1675.000000	76.705	41.6429
1700.000000	77.441	40.1201
1725.000000	78.027	37.7391
1750.000000	78.510	34.8972
1775.000000	78.894	31.5044
1800.000000	79.138	27.5187
1825.000000	79.194	23.1370
1850.000000	79.015	18.8722
1875.000000	78.565	15.7072
1900.000000	77.884	14.9458
1925.000000	77.169	17.3675
1950.000000	76.762	22.1809
1975.000000	76.861	27.2646
2000.000000	77.307	30.8047
2030.000000	77.920	32.4442
2060.000000	78.395	32.1947
2090.000000	78.701	31.2721
2120.000000	78.884	30.4079
2140.000000	78.965	30.0331
2180.000000	79.094	29.8828
2200.000000	79.166	30.0656
2240.000000	79.365	30.6610
2270.000000	79.553	31.0534
2300.000000	79.749	31.3188
2330.000000	79.943	31.5313
2360.000000	80.140	31.7726
2400.000000	80.436	32.1542
2430.000000	80.692	32.3112
2470.000000	81.038	32.1174
2500.000000	81.275	31.7801
2540.000000	81.577	31.3103
2580.000000	81.888	30.7695
2620.000000	82.197	30.0082
2650.000000	82.417	29.3144
2690.000000	82.695	28.3066
2720.000000	82.899	27.4924
2760.000000	83.163	26.2910
2800.000000	83.413	24.9458
2850.000000	83.702	23.0717
2900.000000	83.958	20.9877
2950.000000	84.170	18.7075
3000.000000	84.328	16.3595
3040.000000	84.425	14.4999
3070.000000	84.483	13.1182
3110.000000	84.543	11.3001
3150.000000	84.585	9.5074
3200.000000	84.616	7.2671
3250.000000	84.614	5.0231
3300.000000	84.578	2.8413
3350.000000	84.516	0.7711
3400.000000	84.439	-1.2494
3450.000000	84.338	-3.2927
3500.000000	84.198	-5.3159
3550.000000	84.016	-7.2155
3600.000000	83.795	-8.8995
3650.000000	83.548	-10.3190
3700.000000	83.285	-11.4677
3750.000000	83.017	-12.3533
3820.000000	82.655	-13.2397
3870.000000	82.413	-13.7493
3950.000000	82.029	-14.5497
4000.000000	81.767	-14.9874
4060.000000	81.424	-15.2773
4120.000000	81.064	-15.1908
4180.000000	80.715	-14.7379
4250.000000	80.345	-13.9226
4310.000000	80.056	-13.1215
4370.000000	79.780	-12.2523
4440.000000	79.466	-11.1084
4500.000000	79.210	-10.0259
4550.000000	79.001	-9.0839
4620.000000	78.704	-7.6892
4680.000000	78.430	-6.3046
4750.000000	78.093	-4.2562
4820.000000	77.765	-1.6132
4870.000000	77.552	0.6780
4940.000000	77.316	4.5414
5000.000000	77.231	8.5004
5080.000000	77.415	14.2267
5150.000000	77.866	18.4927
5220.000000	78.411	21.0950
5300.000000	78.925	22.3634
5380.000000	79.317	23.4316
5450.000000	79.751	25.0620
5520.000000	80.426	26.7435
5600.000000	81.405	26.8628
5700.000000	82.471	22.4461
5800.000000	82.985	14.3047
5900.000000	82.914	5.6102
6000.000000	82.405	-1.4578
6080.000000	81.808	-5.4299
6150.000000	81.222	-7.7221
6220.000000	80.627	-9.0997
6300.000000	79.982	-9.8735
6400.000000	79.257	-10.1695
6500.000000	78.604	-10.1178
6600.000000	77.983	-9.7960
6700.000000	77.381	-9.1720
6800.000000	76.790	-8.2345
6900.000000	76.209	-6.9148
7000.000000	75.648	-5.1302
7100.000000	75.136	-2.8871
7200.000000	74.702	-0.3259
7300.000000	74.361	2.3842
7400.000000	74.121	5.1440
7500.000000	74.003	7.8374
7620.000000	74.065	10.4933
7750.000000	74.321	11.5432
7880.000000	74.557	10.0137
8000.000000	74.583	6.7318
8120.000000	74.346	2.6187
8250.000000	73.798	-1.6063
8380.000000	73.033	-4.8504
8500.000000	72.224	-6.8375
8620.000000	71.395	-8.0104
8750.000000	70.563	-8.8695
8850.000000	70.000	-9.7207
9000.000000	69.260	-12.0328
9120.000000	68.700	-15.1339
9250.000000	68.059	-19.8802
9380.000000	67.343	-26.0580
9500.000000	66.603	-33.0272
9620.000000	65.797	-41.1984
9750.000000	64.883	-51.2582
9880.000000	64.043	-62.3513
10000.000000	63.512	-73.4911
10150.000000	63.403	-88.8335
10300.000000	63.911	-105.6753
10440.000000	64.719	-122.2306
10600.000000	65.715	-141.4327
10750.000000	66.483	-159.1160
10900.000000	66.971	-175.8597
11060.000000	67.163	167.9008
11200.000000	67.080	155.2532
11380.000000	66.680	141.0217
11500.000000	66.254	132.6631
11720.000000	65.192	119.3228
11800.000000	64.729	115.0099
12060.000000	62.992	102.4969
12200.000000	61.948	96.2911
12410.000000	60.364	85.8689
12500.000000	59.718	79.9927
12650.000000	58.707	66.2658
12800.000000	57.708	45.0085
13150.000000	54.652	-44.6292
13200.000000	54.127	-61.7580
13400.000000	52.344	-135.8123
13600.000000	51.931	149.7722
13800.000000	52.457	82.8037
14000.000000	52.670	27.9058
14300.000000	51.759	-23.5344
14500.000000	51.044	-38.6757
14750.000000	50.858	-46.3923
15000.000000	51.242	-48.9862
15250.000000	52.077	-48.1786
15500.000000	53.575	-45.8271
15750.000000	55.535	-45.5153
16000.000000	57.537	-49.9707
16250.000000	59.246	-60.3726
16500.000000	60.369	-76.7269
16750.000000	60.660	-96.8823
17000.000000	60.083	-116.5244
17250.000000	58.906	-132.8264
17500.000000	57.519	-146.6741
17750.000000	56.112	-160.0701
18000.000000	54.599	-173.2394
18250.000000	52.839	175.4318
18500.000000	50.858	167.6823
18750.000000	49.060	163.0781
19000.000000	48.221	157.5809
19250.000000	48.508	145.9435
19500.000000	49.155	127.1650
19750.000000	49.619	106.5703
