* Measurement data measured by REW V5.20.13
* Source: EXCL: Headset (USB-C to 3.5mm Headphone Jack Adapter), MICROPHONE (Master Volume), 0, volume: 0.260
* Format: 256k Log Swept Sine, 1 sweep at -12.0 dBFS with no timing reference
* Dated: Dec 30, 2023 10:51:19 PM
* REW Settings:
*  C-weighting compensation: Off
*  Target level: 75.0 dB
* Note: 
* Measurement: JBL TUNE760NC Wired Dec 30
* Smoothing: 1/12 octave
* Frequency Step: 1/48 octave
* Start Frequency: 20.000 Hz
*
* Freq(Hz)	SPL(dB)	Phase(degrees)
20.000000	71.156	134.4558
20.299999	71.378	132.5912
20.600000	71.602	130.7860
20.900000	71.823	129.0134
21.200001	72.035	127.2572
21.400000	72.168	126.0935
21.799999	72.410	123.7941
22.000000	72.516	122.6663
22.400000	72.699	120.4756
22.700001	72.813	118.9069
23.000000	72.910	117.4061
23.299999	72.996	115.9608
23.600000	73.074	114.5398
24.000000	73.168	112.6074
24.299999	73.227	111.0898
24.700001	73.281	108.9869
25.000000	73.303	107.4201
25.400000	73.323	105.4587
25.799999	73.372	103.6557
26.200001	73.483	101.7840
26.500000	73.602	100.1107
26.900000	73.755	97.3331
27.200001	73.821	94.9019
27.600000	73.798	91.6779
28.000000	73.656	89.1822
28.500000	73.450	87.8897
29.000000	73.451	88.1791
29.500000	73.721	88.5410
30.000000	74.073	87.9102
30.400000	74.304	86.8660
30.700001	74.438	86.0368
31.100000	74.596	85.0172
31.500000	74.750	83.9459
32.000000	74.905	82.1945
32.500000	74.957	80.0832
33.000000	74.936	78.0953
33.500000	74.960	76.0473
34.000000	75.052	72.7792
34.500000	75.033	67.6028
35.000000	74.677	61.9062
35.500000	73.937	58.6109
36.000000	73.130	59.5583
36.500000	72.840	63.2069
37.000000	73.240	65.7529
37.500000	73.874	64.9230
38.200001	74.524	60.1711
38.700001	74.850	56.7463
39.500000	75.395	51.9572
40.000000	75.643	48.5451
40.599998	75.657	44.6107
41.200001	75.396	42.5134
41.799999	75.103	42.7651
42.500000	74.988	44.3042
43.099998	75.029	45.0999
43.700001	75.049	45.2244
44.400002	75.009	45.1559
45.000000	74.976	45.0634
45.500000	74.969	44.8012
46.200001	74.968	44.0209
46.799999	74.958	43.1101
47.500000	74.951	41.9918
48.200001	74.972	40.7893
48.700001	74.995	39.8148
49.400002	75.009	38.3742
50.000000	75.000	37.2387
50.799999	74.986	35.9615
51.500000	74.988	34.9172
52.200001	74.992	33.7843
53.000000	74.979	32.3359
53.799999	74.930	30.8140
54.500000	74.854	29.5501
55.200001	74.756	28.4364
56.000000	74.623	27.4184
57.000000	74.436	26.6032
58.000000	74.234	26.2574
59.000000	74.016	26.4808
60.000000	73.852	27.1602
60.799999	73.792	27.5685
61.500000	73.778	27.6019
62.200001	73.786	27.2478
63.000000	73.795	26.3384
64.000000	73.757	24.8033
65.000000	73.691	23.4349
66.000000	73.653	22.3311
67.000000	73.636	21.3884
68.000000	73.624	20.6075
69.000000	73.606	19.8987
70.000000	73.565	19.1503
71.000000	73.489	18.3639
72.000000	73.382	17.5476
73.000000	73.246	16.7267
74.000000	73.081	16.0665
75.000000	72.902	15.7483
76.199997	72.705	15.9344
77.500000	72.550	16.7176
78.800003	72.449	17.8301
80.000000	72.398	18.9964
81.199997	72.378	19.8557
82.500000	72.287	20.3126
83.800003	72.111	21.0275
85.000000	71.983	22.1155
86.199997	71.947	23.3466
87.500000	72.026	24.8267
88.500000	72.200	26.1394
90.000000	72.650	27.8651
91.199997	73.041	28.4801
92.500000	73.334	28.5822
93.800003	73.474	28.7907
95.000000	73.534	29.2352
96.199997	73.597	29.6418
97.500000	73.724	29.5909
98.800003	73.912	28.5755
100.000000	74.068	26.8740
101.500000	74.196	24.8308
103.000000	74.323	23.7217
104.400002	74.477	23.0820
106.000000	74.582	21.8397
107.500000	74.525	20.3792
109.000000	74.429	19.2708
110.599998	74.443	18.5001
112.000000	74.571	17.9532
113.800003	74.794	17.0942
115.000000	74.923	16.2714
117.199997	75.075	13.9172
118.000000	75.098	12.7997
120.599998	75.064	9.5911
122.000000	75.050	8.6828
124.099998	75.048	7.7020
125.000000	75.024	7.1996
126.500000	74.938	6.1361
128.000000	74.813	4.8622
131.500000	74.592	2.5869
132.000000	74.577	2.4443
134.000000	74.530	2.3165
136.000000	74.464	2.5045
138.000000	74.378	2.4183
140.000000	74.320	1.8849
143.000000	74.352	1.0015
145.000000	74.423	0.9395
147.500000	74.483	0.8333
150.000000	74.359	-0.4706
152.500000	74.060	-2.4573
155.000000	73.804	-4.0416
157.500000	73.680	-4.7702
160.000000	73.597	-5.0076
162.500000	73.459	-5.2574
165.000000	73.284	-5.6383
167.500000	73.123	-6.1273
170.000000	72.990	-6.6586
172.500000	72.882	-7.1865
175.000000	72.778	-7.5626
177.500000	72.658	-7.5555
180.000000	72.533	-7.2133
182.500000	72.414	-6.8413
185.000000	72.304	-6.6956
187.500000	72.190	-6.8015
190.000000	72.068	-6.9666
192.500000	71.948	-7.0431
195.000000	71.828	-7.0244
197.500000	71.699	-6.8982
200.000000	71.560	-6.5240
203.000000	71.410	-5.5823
206.000000	71.305	-4.2347
209.000000	71.256	-2.8439
212.000000	71.259	-1.7300
214.000000	71.280	-1.1719
218.000000	71.342	-0.3242
220.000000	71.377	0.0278
224.000000	71.447	0.6075
227.000000	71.504	0.7913
230.000000	71.556	0.6976
233.000000	71.593	0.4883
236.000000	71.610	0.3118
240.000000	71.596	0.1223
243.000000	71.559	-0.0083
247.000000	71.496	-0.1082
250.000000	71.448	-0.0999
254.000000	71.386	0.0107
258.000000	71.329	0.2096
262.000000	71.276	0.4842
265.000000	71.240	0.7279
269.000000	71.196	1.0751
272.000000	71.166	1.3438
276.000000	71.129	1.7224
280.000000	71.097	2.1412
285.000000	71.062	2.7296
290.000000	71.032	3.3658
295.000000	71.005	4.0257
300.000000	70.990	4.6992
304.000000	70.989	5.2421
307.000000	70.995	5.6536
311.000000	71.006	6.2070
315.000000	71.025	6.7628
320.000000	71.063	7.4520
325.000000	71.116	8.1077
330.000000	71.178	8.7101
335.000000	71.244	9.2470
340.000000	71.312	9.7111
345.000000	71.379	10.1160
350.000000	71.445	10.4825
355.000000	71.510	10.8187
360.000000	71.575	11.1376
365.000000	71.641	11.4578
370.000000	71.708	11.7787
375.000000	71.778	12.0875
382.000000	71.876	12.4818
387.000000	71.947	12.7338
395.000000	72.057	13.1034
400.000000	72.127	13.3306
406.000000	72.216	13.6044
412.000000	72.313	13.8528
418.000000	72.412	14.0430
425.000000	72.528	14.1793
431.000000	72.627	14.2428
437.000000	72.725	14.2725
444.000000	72.839	14.2628
450.000000	72.934	14.2133
455.000000	73.011	14.1426
462.000000	73.112	14.0005
468.000000	73.191	13.8480
475.000000	73.276	13.6600
482.000000	73.354	13.4877
487.000000	73.408	13.3798
494.000000	73.481	13.2432
500.000000	73.544	13.1273
508.000000	73.626	12.9609
515.000000	73.695	12.8082
522.000000	73.763	12.6571
530.000000	73.839	12.4878
538.000000	73.915	12.3154
545.000000	73.978	12.1532
552.000000	74.038	11.9821
560.000000	74.106	11.7872
570.000000	74.190	11.5515
580.000000	74.273	11.3267
590.000000	74.356	11.1072
600.000000	74.439	10.8858
608.000000	74.507	10.7018
615.000000	74.568	10.5305
622.000000	74.628	10.3478
630.000000	74.697	10.1277
640.000000	74.783	9.8381
650.000000	74.870	9.5286
660.000000	74.958	9.1849
670.000000	75.043	8.7902
680.000000	75.123	8.3499
690.000000	75.198	7.8896
700.000000	75.268	7.4249
710.000000	75.334	6.9542
720.000000	75.397	6.4705
730.000000	75.456	5.9682
740.000000	75.512	5.4445
750.000000	75.564	4.8978
762.000000	75.619	4.2154
775.000000	75.664	3.4604
788.000000	75.695	2.7120
800.000000	75.714	2.0569
812.000000	75.728	1.4539
825.000000	75.741	0.8397
838.000000	75.753	0.2317
850.000000	75.758	-0.3342
862.000000	75.757	-0.8958
875.000000	75.748	-1.4893
885.000000	75.737	-1.9323
900.000000	75.711	-2.5702
912.000000	75.683	-3.0487
925.000000	75.644	-3.5225
938.000000	75.595	-3.9312
950.000000	75.543	-4.2296
962.000000	75.486	-4.4357
975.000000	75.422	-4.5408
988.000000	75.365	-4.5173
1000.000000	75.321	-4.3944
1015.000000	75.285	-4.1406
1030.000000	75.273	-3.8135
1044.000000	75.288	-3.4798
1060.000000	75.341	-3.1460
1075.000000	75.423	-2.9958
1090.000000	75.520	-3.1188
1106.000000	75.610	-3.5786
1120.000000	75.654	-4.1455
1138.000000	75.667	-4.8710
1150.000000	75.660	-5.2888
1172.000000	75.629	-5.9193
1180.000000	75.614	-6.1144
1206.000000	75.556	-6.6432
1220.000000	75.520	-6.8621
1241.000000	75.460	-7.1059
1250.000000	75.433	-7.1782
1265.000000	75.387	-7.2522
1280.000000	75.343	-7.2682
1315.000000	75.253	-7.1152
1320.000000	75.242	-7.0766
1340.000000	75.206	-6.9002
1360.000000	75.180	-6.7173
1380.000000	75.163	-6.5527
1400.000000	75.151	-6.4156
1430.000000	75.129	-6.2734
1450.000000	75.104	-6.2080
1475.000000	75.059	-6.1141
1500.000000	74.993	-5.9476
1525.000000	74.906	-5.5791
1550.000000	74.818	-4.8582
1575.000000	74.773	-3.8605
1600.000000	74.780	-2.8782
1625.000000	74.809	-2.0667
1650.000000	74.832	-1.3260
1675.000000	74.854	-0.5176
1700.000000	74.886	0.3928
1725.000000	74.940	1.3658
1750.000000	75.020	2.3469
1775.000000	75.127	3.2851
1800.000000	75.258	4.1201
1825.000000	75.407	4.7889
1850.000000	75.561	5.2574
1875.000000	75.705	5.5379
1900.000000	75.829	5.6922
1925.000000	75.928	5.8207
1950.000000	76.009	6.0220
1975.000000	76.084	6.3425
2000.000000	76.166	6.7695
2030.000000	76.281	7.3650
2060.000000	76.418	7.9776
2090.000000	76.574	8.5403
2120.000000	76.745	9.0192
2140.000000	76.864	9.2836
2180.000000	77.108	9.6592
2200.000000	77.229	9.7656
2240.000000	77.457	9.8271
2270.000000	77.605	9.7975
2300.000000	77.726	9.8340
2330.000000	77.836	10.1031
2360.000000	77.970	10.6649
2400.000000	78.232	11.5750
2430.000000	78.482	12.0973
2470.000000	78.851	12.4423
2500.000000	79.142	12.4523
2540.000000	79.540	12.1385
2580.000000	79.939	11.4127
2620.000000	80.317	10.2567
2650.000000	80.573	9.1457
2690.000000	80.868	7.4550
2720.000000	81.057	6.1177
2760.000000	81.273	4.3315
2800.000000	81.462	2.5822
2850.000000	81.675	0.4523
2900.000000	81.876	-1.6503
2950.000000	82.082	-3.8466
3000.000000	82.287	-6.3869
3040.000000	82.417	-8.8290
3070.000000	82.467	-10.8745
3110.000000	82.444	-13.6447
3150.000000	82.319	-16.0336
3200.000000	82.105	-17.9572
3250.000000	81.977	-18.9246
3300.000000	82.005	-19.9083
3350.000000	82.115	-21.6648
3400.000000	82.201	-24.3445
3450.000000	82.190	-27.7314
3500.000000	82.040	-31.4418
3550.000000	81.735	-35.0073
3600.000000	81.292	-37.9781
3650.000000	80.755	-40.0857
3700.000000	80.178	-41.3484
3750.000000	79.590	-41.9276
3820.000000	78.748	-41.5840
3870.000000	78.144	-40.2665
3950.000000	77.341	-36.2472
4000.000000	77.051	-33.1359
4060.000000	76.938	-29.7518
4120.000000	76.982	-27.3873
4180.000000	77.046	-26.1891
4250.000000	77.004	-25.6996
4310.000000	76.840	-25.2170
4370.000000	76.615	-24.1639
4440.000000	76.368	-22.2108
4500.000000	76.213	-20.1683
4550.000000	76.131	-18.3833
4620.000000	76.074	-15.9508
4680.000000	76.052	-13.9964
4750.000000	76.030	-11.7893
4820.000000	76.003	-9.4504
4870.000000	75.990	-7.5784
4940.000000	76.013	-4.5999
5000.000000	76.103	-1.7556
5080.000000	76.362	2.2585
5150.000000	76.746	5.8077
5220.000000	77.318	9.2062
5300.000000	78.210	12.1647
5380.000000	79.189	12.8991
5450.000000	79.918	11.4219
5520.000000	80.440	8.6744
5600.000000	80.811	5.1943
5700.000000	81.101	1.4732
5800.000000	81.375	-1.7292
5900.000000	81.663	-5.3907
6000.000000	81.864	-10.1274
6080.000000	81.888	-14.6431
6150.000000	81.768	-18.8725
6220.000000	81.499	-23.0220
6300.000000	81.004	-27.1665
6400.000000	80.141	-30.6907
6500.000000	79.104	-31.7960
6600.000000	78.033	-30.3820
6700.000000	77.096	-26.9268
6800.000000	76.427	-22.3330
6900.000000	76.058	-17.4977
7000.000000	75.938	-12.9457
7100.000000	76.012	-8.9123
7200.000000	76.233	-5.6147
7300.000000	76.548	-3.2902
7400.000000	76.886	-2.0669
7500.000000	77.177	-1.8567
7620.000000	77.405	-2.4855
7750.000000	77.499	-3.5343
7880.000000	77.472	-4.4204
8000.000000	77.388	-4.7885
8120.000000	77.314	-4.6073
8250.000000	77.341	-3.9642
8380.000000	77.566	-3.4886
8500.000000	77.951	-4.1545
8620.000000	78.397	-6.7958
8750.000000	78.763	-12.4146
8850.000000	78.834	-18.5180
9000.000000	78.428	-29.0715
9120.000000	77.602	-36.7408
9250.000000	76.272	-42.4941
9380.000000	74.642	-45.1110
9500.000000	73.006	-45.0270
9620.000000	71.303	-42.5804
9750.000000	69.403	-36.5451
9880.000000	67.574	-26.3560
10000.000000	66.325	-14.4872
10150.000000	65.827	-0.9949
10300.000000	65.992	7.1354
10440.000000	65.979	11.1202
10600.000000	65.530	16.0292
10750.000000	65.018	24.1178
10900.000000	65.046	35.2350
11060.000000	65.840	45.7892
11200.000000	66.535	50.5810
11380.000000	66.821	53.5544
11500.000000	66.827	56.6121
11720.000000	67.285	65.0745
11800.000000	67.663	68.2535
12060.000000	69.514	77.0096
12200.000000	70.920	80.8185
12410.000000	73.440	83.8712
12500.000000	74.504	83.0602
12650.000000	75.983	77.5282
12800.000000	76.896	67.1922
13150.000000	76.751	39.8581
13200.000000	76.558	36.9032
13400.000000	75.704	27.9281
13600.000000	75.036	21.5533
13800.000000	74.694	15.4122
14000.000000	74.644	8.1434
14300.000000	74.992	-7.6464
14500.000000	75.277	-23.6233
14750.000000	75.263	-50.6970
15000.000000	74.585	-83.6890
15250.000000	73.283	-119.5625
15500.000000	71.519	-155.0751
15750.000000	69.567	173.3804
16000.000000	67.988	147.4996
16250.000000	67.388	125.9976
16500.000000	67.755	105.8749
16750.000000	68.453	84.0749
17000.000000	68.817	59.4708
17250.000000	68.487	34.1062
17500.000000	67.474	11.1129
17750.000000	66.007	-8.2944
18000.000000	64.284	-23.7169
18250.000000	62.487	-33.0166
18500.000000	61.334	-34.6085
18750.000000	61.995	-34.4307
19000.000000	63.868	-43.9137
19250.000000	65.617	-67.7491
19500.000000	66.789	-100.9395
19750.000000	67.413	-133.5164
