* Measurement data measured by REW V5.20.13
* Source: Frequency Response Averaged data
* Format: Averaged data produced from the rms magnitudes of JVC-VICTOR HA-WM90B R, JVC-VICTOR HA-WM90B R
* Dated: Apr 9, 2024 4:33:42 PM
* REW Settings:
*  C-weighting compensation: Off
*  Target level: 75.0 dB
* Note: Averaged data produced from the rms magnitudes of JVC-VICTOR HA-WM90B R, JVC-VICTOR HA-WM90B R
* Measurement: RMS Avg HA-WM90B R
* Smoothing: 1/12 octave
* Frequency Step: 1/48 octave
* Start Frequency: 20.000 Hz
*
* Freq(Hz)	SPL(dB)
20.000000	76.673
20.299999	76.870
20.600000	77.060
20.900000	77.244
21.200001	77.421
21.400000	77.538
21.799999	77.766
22.000000	77.878
22.400000	78.095
22.700001	78.249
23.000000	78.396
23.299999	78.535
23.600000	78.671
24.000000	78.850
24.299999	78.988
24.700001	79.180
25.000000	79.328
25.400000	79.525
25.799999	79.716
26.200001	79.897
26.500000	80.025
26.900000	80.187
27.200001	80.304
27.600000	80.454
28.000000	80.596
28.500000	80.757
29.000000	80.900
29.500000	81.026
30.000000	81.141
30.400000	81.228
30.700001	81.291
31.100000	81.374
31.500000	81.457
32.000000	81.559
32.500000	81.656
33.000000	81.745
33.500000	81.825
34.000000	81.899
34.500000	81.968
35.000000	82.031
35.500000	82.088
36.000000	82.136
36.500000	82.179
37.000000	82.218
37.500000	82.258
38.200001	82.315
38.700001	82.355
39.500000	82.411
40.000000	82.441
40.599998	82.473
41.200001	82.499
41.799999	82.519
42.500000	82.530
43.099998	82.532
43.700001	82.531
44.400002	82.532
45.000000	82.535
45.500000	82.542
46.200001	82.563
46.799999	82.593
47.500000	82.643
48.200001	82.705
48.700001	82.754
49.400002	82.823
50.000000	82.879
50.799999	82.942
51.500000	82.983
52.200001	83.012
53.000000	83.025
53.799999	83.015
54.500000	82.986
55.200001	82.938
56.000000	82.863
57.000000	82.765
58.000000	82.692
59.000000	82.657
60.000000	82.654
60.799999	82.665
61.500000	82.676
62.200001	82.685
63.000000	82.691
64.000000	82.700
65.000000	82.720
66.000000	82.761
67.000000	82.825
68.000000	82.907
69.000000	83.002
70.000000	83.104
71.000000	83.209
72.000000	83.319
73.000000	83.434
74.000000	83.553
75.000000	83.675
76.199997	83.826
77.500000	83.996
78.800003	84.172
80.000000	84.336
81.199997	84.501
82.500000	84.679
83.800003	84.855
85.000000	85.013
86.199997	85.166
87.500000	85.326
88.500000	85.443
90.000000	85.609
91.199997	85.733
92.500000	85.857
93.800003	85.970
95.000000	86.064
96.199997	86.147
97.500000	86.223
98.800003	86.284
100.000000	86.326
101.500000	86.354
103.000000	86.348
104.400002	86.303
106.000000	86.196
107.500000	86.039
109.000000	85.835
110.599998	85.586
112.000000	85.365
113.800003	85.125
115.000000	85.018
117.199997	84.972
118.000000	85.001
120.599998	85.206
122.000000	85.339
124.099998	85.514
125.000000	85.574
126.500000	85.650
128.000000	85.702
131.500000	85.751
132.000000	85.753
134.000000	85.751
136.000000	85.739
138.000000	85.718
140.000000	85.688
143.000000	85.627
145.000000	85.573
147.500000	85.486
150.000000	85.376
152.500000	85.242
155.000000	85.087
157.500000	84.914
160.000000	84.725
162.500000	84.529
165.000000	84.335
167.500000	84.145
170.000000	83.955
172.500000	83.762
175.000000	83.569
177.500000	83.378
180.000000	83.192
182.500000	83.012
185.000000	82.840
187.500000	82.677
190.000000	82.521
192.500000	82.369
195.000000	82.214
197.500000	82.050
200.000000	81.876
203.000000	81.662
206.000000	81.457
209.000000	81.271
212.000000	81.107
214.000000	81.004
218.000000	80.796
220.000000	80.685
224.000000	80.444
227.000000	80.245
230.000000	80.033
233.000000	79.811
236.000000	79.581
240.000000	79.268
243.000000	79.030
247.000000	78.712
250.000000	78.474
254.000000	78.158
258.000000	77.847
262.000000	77.545
265.000000	77.329
269.000000	77.064
272.000000	76.880
276.000000	76.648
280.000000	76.421
285.000000	76.140
290.000000	75.869
295.000000	75.615
300.000000	75.377
304.000000	75.200
307.000000	75.075
311.000000	74.918
315.000000	74.776
320.000000	74.625
325.000000	74.509
330.000000	74.431
335.000000	74.378
340.000000	74.342
345.000000	74.317
350.000000	74.303
355.000000	74.298
360.000000	74.303
365.000000	74.315
370.000000	74.333
375.000000	74.354
382.000000	74.389
387.000000	74.418
395.000000	74.474
400.000000	74.513
406.000000	74.564
412.000000	74.618
418.000000	74.675
425.000000	74.745
431.000000	74.809
437.000000	74.877
444.000000	74.963
450.000000	75.039
455.000000	75.102
462.000000	75.189
468.000000	75.261
475.000000	75.342
482.000000	75.419
487.000000	75.472
494.000000	75.543
500.000000	75.602
508.000000	75.677
515.000000	75.739
522.000000	75.797
530.000000	75.861
538.000000	75.921
545.000000	75.971
552.000000	76.018
560.000000	76.068
570.000000	76.124
580.000000	76.174
590.000000	76.216
600.000000	76.251
608.000000	76.275
615.000000	76.292
622.000000	76.307
630.000000	76.322
640.000000	76.338
650.000000	76.352
660.000000	76.362
670.000000	76.364
680.000000	76.360
690.000000	76.357
700.000000	76.359
710.000000	76.359
720.000000	76.347
730.000000	76.318
740.000000	76.278
750.000000	76.231
762.000000	76.175
775.000000	76.117
788.000000	76.061
800.000000	76.007
812.000000	75.948
825.000000	75.876
838.000000	75.801
850.000000	75.731
862.000000	75.664
875.000000	75.593
885.000000	75.542
900.000000	75.468
912.000000	75.412
925.000000	75.352
938.000000	75.290
950.000000	75.231
962.000000	75.173
975.000000	75.112
988.000000	75.054
1000.000000	75.004
1015.000000	74.945
1030.000000	74.893
1044.000000	74.851
1060.000000	74.811
1075.000000	74.777
1090.000000	74.741
1106.000000	74.701
1120.000000	74.667
1138.000000	74.628
1150.000000	74.605
1172.000000	74.570
1180.000000	74.558
1206.000000	74.527
1220.000000	74.513
1241.000000	74.495
1250.000000	74.489
1265.000000	74.479
1280.000000	74.471
1315.000000	74.456
1320.000000	74.455
1340.000000	74.450
1360.000000	74.447
1380.000000	74.447
1400.000000	74.448
1430.000000	74.457
1450.000000	74.467
1475.000000	74.487
1500.000000	74.517
1525.000000	74.557
1550.000000	74.608
1575.000000	74.666
1600.000000	74.724
1625.000000	74.782
1650.000000	74.846
1675.000000	74.922
1700.000000	75.012
1725.000000	75.117
1750.000000	75.238
1775.000000	75.376
1800.000000	75.532
1825.000000	75.706
1850.000000	75.896
1875.000000	76.098
1900.000000	76.309
1925.000000	76.525
1950.000000	76.747
1975.000000	76.973
2000.000000	77.202
2030.000000	77.473
2060.000000	77.734
2090.000000	77.977
2120.000000	78.194
2140.000000	78.322
2180.000000	78.537
2200.000000	78.624
2240.000000	78.764
2270.000000	78.848
2300.000000	78.916
2330.000000	78.973
2360.000000	79.017
2400.000000	79.054
2430.000000	79.063
2470.000000	79.052
2500.000000	79.029
2540.000000	78.987
2580.000000	78.944
2620.000000	78.909
2650.000000	78.894
2690.000000	78.888
2720.000000	78.892
2760.000000	78.900
2800.000000	78.907
2850.000000	78.921
2900.000000	78.964
2950.000000	79.075
3000.000000	79.278
3040.000000	79.493
3070.000000	79.672
3110.000000	79.915
3150.000000	80.150
3200.000000	80.422
3250.000000	80.663
3300.000000	80.873
3350.000000	81.056
3400.000000	81.214
3450.000000	81.351
3500.000000	81.467
3550.000000	81.565
3600.000000	81.645
3650.000000	81.711
3700.000000	81.764
3750.000000	81.804
3820.000000	81.835
3870.000000	81.839
3950.000000	81.826
4000.000000	81.810
4060.000000	81.769
4120.000000	81.684
4180.000000	81.544
4250.000000	81.321
4310.000000	81.091
4370.000000	80.845
4440.000000	80.564
4500.000000	80.350
4550.000000	80.206
4620.000000	80.075
4680.000000	80.039
4750.000000	80.082
4820.000000	80.191
4870.000000	80.289
4940.000000	80.433
5000.000000	80.555
5080.000000	80.722
5150.000000	80.885
5220.000000	81.064
5300.000000	81.273
5380.000000	81.447
5450.000000	81.537
5520.000000	81.540
5600.000000	81.421
5700.000000	81.091
5800.000000	80.609
5900.000000	80.060
6000.000000	79.529
6080.000000	79.164
6150.000000	78.909
6220.000000	78.723
6300.000000	78.603
6400.000000	78.599
6500.000000	78.759
6600.000000	79.078
6700.000000	79.545
6800.000000	80.140
6900.000000	80.838
7000.000000	81.602
7100.000000	82.385
7200.000000	83.134
7300.000000	83.800
7400.000000	84.354
7500.000000	84.793
7620.000000	85.183
7750.000000	85.467
7880.000000	85.647
8000.000000	85.769
8120.000000	85.899
8250.000000	86.076
8380.000000	86.261
8500.000000	86.340
8620.000000	86.179
8750.000000	85.558
8850.000000	84.696
9000.000000	82.815
9120.000000	80.930
9250.000000	78.664
9380.000000	76.257
9500.000000	73.927
9620.000000	71.501
9750.000000	68.903
9880.000000	66.826
10000.000000	65.968
10150.000000	66.290
10300.000000	67.279
10440.000000	68.373
10600.000000	69.795
10750.000000	71.311
10900.000000	72.945
11060.000000	74.693
11200.000000	76.071
11380.000000	77.388
11500.000000	77.876
11720.000000	77.900
11800.000000	77.665
12060.000000	76.367
12200.000000	75.700
12410.000000	75.815
12500.000000	76.481
12650.000000	78.186
12800.000000	80.097
13150.000000	83.111
13200.000000	83.273
13400.000000	83.177
13600.000000	82.007
13800.000000	79.984
14000.000000	77.355
14300.000000	73.129
14500.000000	71.127
14750.000000	71.012
15000.000000	72.881
15250.000000	74.510
15500.000000	74.928
15750.000000	74.203
16000.000000	73.287
16250.000000	73.484
16500.000000	74.746
16750.000000	76.211
17000.000000	77.120
17250.000000	77.111
17500.000000	76.310
17750.000000	74.999
18000.000000	73.339
18250.000000	71.488
18500.000000	69.811
18750.000000	68.749
19000.000000	68.460
19250.000000	68.780
19500.000000	69.420
19750.000000	70.055
