* Measurement data measured by REW V5.20.13
* Source: Frequency Response Averaged data
* Format: Averaged data produced from the rms magnitudes of JVC-VICTOR HA-WM90B L, JVC-VICTOR HA-WM90B L, JVC-VICTOR HA-WM90B L
* Dated: Apr 9, 2024 4:33:57 PM
* REW Settings:
*  C-weighting compensation: Off
*  Target level: 75.0 dB
* Note: Averaged data produced from the rms magnitudes of JVC-VICTOR HA-WM90B L, JVC-VICTOR HA-WM90B L, JVC-VICTOR HA-WM90B L
* Measurement: RMS Avg HA-WM90B L
* Smoothing: 1/12 octave
* Frequency Step: 1/48 octave
* Start Frequency: 20.000 Hz
*
* Freq(Hz)	SPL(dB)
20.000000	76.308
20.299999	76.501
20.600000	76.689
20.900000	76.875
21.200001	77.061
21.400000	77.183
21.799999	77.422
22.000000	77.536
22.400000	77.749
22.700001	77.898
23.000000	78.041
23.299999	78.182
23.600000	78.324
24.000000	78.513
24.299999	78.651
24.700001	78.826
25.000000	78.949
25.400000	79.105
25.799999	79.261
26.200001	79.425
26.500000	79.553
26.900000	79.724
27.200001	79.847
27.600000	80.000
28.000000	80.140
28.500000	80.304
29.000000	80.468
29.500000	80.633
30.000000	80.791
30.400000	80.908
30.700001	80.991
31.100000	81.095
31.500000	81.193
32.000000	81.308
32.500000	81.415
33.000000	81.516
33.500000	81.615
34.000000	81.713
34.500000	81.812
35.000000	81.910
35.500000	82.002
36.000000	82.084
36.500000	82.156
37.000000	82.215
37.500000	82.264
38.200001	82.318
38.700001	82.351
39.500000	82.399
40.000000	82.430
40.599998	82.469
41.200001	82.506
41.799999	82.542
42.500000	82.577
43.099998	82.601
43.700001	82.616
44.400002	82.623
45.000000	82.620
45.500000	82.615
46.200001	82.606
46.799999	82.599
47.500000	82.594
48.200001	82.595
48.700001	82.599
49.400002	82.611
50.000000	82.626
50.799999	82.653
51.500000	82.682
52.200001	82.712
53.000000	82.744
53.799999	82.766
54.500000	82.774
55.200001	82.768
56.000000	82.742
57.000000	82.683
58.000000	82.611
59.000000	82.539
60.000000	82.473
60.799999	82.426
61.500000	82.388
62.200001	82.354
63.000000	82.316
64.000000	82.274
65.000000	82.243
66.000000	82.231
67.000000	82.245
68.000000	82.286
69.000000	82.350
70.000000	82.436
71.000000	82.539
72.000000	82.657
73.000000	82.786
74.000000	82.922
75.000000	83.063
76.199997	83.238
77.500000	83.430
78.800003	83.622
80.000000	83.794
81.199997	83.961
82.500000	84.134
83.800003	84.296
85.000000	84.437
86.199997	84.567
87.500000	84.694
88.500000	84.781
90.000000	84.896
91.199997	84.976
92.500000	85.057
93.800003	85.134
95.000000	85.202
96.199997	85.267
97.500000	85.329
98.800003	85.376
100.000000	85.397
101.500000	85.385
103.000000	85.321
104.400002	85.217
106.000000	85.059
107.500000	84.900
109.000000	84.766
110.599998	84.679
112.000000	84.661
113.800003	84.704
115.000000	84.763
117.199997	84.905
118.000000	84.962
120.599998	85.149
122.000000	85.243
124.099998	85.370
125.000000	85.418
126.500000	85.489
128.000000	85.550
131.500000	85.652
132.000000	85.662
134.000000	85.691
136.000000	85.704
138.000000	85.701
140.000000	85.683
143.000000	85.634
145.000000	85.587
147.500000	85.511
150.000000	85.418
152.500000	85.308
155.000000	85.183
157.500000	85.044
160.000000	84.894
162.500000	84.732
165.000000	84.562
167.500000	84.386
170.000000	84.209
172.500000	84.034
175.000000	83.862
177.500000	83.689
180.000000	83.512
182.500000	83.329
185.000000	83.137
187.500000	82.938
190.000000	82.733
192.500000	82.522
195.000000	82.308
197.500000	82.090
200.000000	81.871
203.000000	81.607
206.000000	81.341
209.000000	81.073
212.000000	80.802
214.000000	80.620
218.000000	80.257
220.000000	80.078
224.000000	79.727
227.000000	79.470
230.000000	79.220
233.000000	78.974
236.000000	78.731
240.000000	78.413
243.000000	78.178
247.000000	77.866
250.000000	77.633
254.000000	77.318
258.000000	76.998
262.000000	76.673
265.000000	76.436
269.000000	76.151
272.000000	75.978
276.000000	75.807
280.000000	75.670
285.000000	75.487
290.000000	75.270
295.000000	75.036
300.000000	74.804
304.000000	74.626
307.000000	74.499
311.000000	74.340
315.000000	74.194
320.000000	74.038
325.000000	73.924
330.000000	73.857
335.000000	73.832
340.000000	73.841
345.000000	73.878
350.000000	73.931
355.000000	73.985
360.000000	74.027
365.000000	74.051
370.000000	74.056
375.000000	74.049
382.000000	74.037
387.000000	74.037
395.000000	74.059
400.000000	74.081
406.000000	74.114
412.000000	74.150
418.000000	74.190
425.000000	74.241
431.000000	74.290
437.000000	74.340
444.000000	74.402
450.000000	74.457
455.000000	74.505
462.000000	74.577
468.000000	74.642
475.000000	74.720
482.000000	74.802
487.000000	74.862
494.000000	74.946
500.000000	75.015
508.000000	75.104
515.000000	75.180
522.000000	75.255
530.000000	75.340
538.000000	75.426
545.000000	75.500
552.000000	75.573
560.000000	75.654
570.000000	75.752
580.000000	75.844
590.000000	75.927
600.000000	76.000
608.000000	76.051
615.000000	76.090
622.000000	76.124
630.000000	76.156
640.000000	76.189
650.000000	76.214
660.000000	76.232
670.000000	76.242
680.000000	76.241
690.000000	76.231
700.000000	76.221
710.000000	76.211
720.000000	76.197
730.000000	76.176
740.000000	76.146
750.000000	76.108
762.000000	76.052
775.000000	75.985
788.000000	75.914
800.000000	75.849
812.000000	75.785
825.000000	75.720
838.000000	75.658
850.000000	75.605
862.000000	75.555
875.000000	75.502
885.000000	75.462
900.000000	75.402
912.000000	75.353
925.000000	75.299
938.000000	75.244
950.000000	75.194
962.000000	75.145
975.000000	75.095
988.000000	75.048
1000.000000	75.008
1015.000000	74.964
1030.000000	74.926
1044.000000	74.898
1060.000000	74.873
1075.000000	74.858
1090.000000	74.850
1106.000000	74.846
1120.000000	74.844
1138.000000	74.844
1150.000000	74.846
1172.000000	74.853
1180.000000	74.856
1206.000000	74.862
1220.000000	74.860
1241.000000	74.854
1250.000000	74.852
1265.000000	74.851
1280.000000	74.854
1315.000000	74.870
1320.000000	74.874
1340.000000	74.890
1360.000000	74.909
1380.000000	74.931
1400.000000	74.957
1430.000000	75.003
1450.000000	75.040
1475.000000	75.093
1500.000000	75.154
1525.000000	75.222
1550.000000	75.300
1575.000000	75.384
1600.000000	75.471
1625.000000	75.555
1650.000000	75.636
1675.000000	75.722
1700.000000	75.816
1725.000000	75.922
1750.000000	76.036
1775.000000	76.160
1800.000000	76.292
1825.000000	76.435
1850.000000	76.589
1875.000000	76.757
1900.000000	76.938
1925.000000	77.131
1950.000000	77.332
1975.000000	77.535
2000.000000	77.734
2030.000000	77.964
2060.000000	78.179
2090.000000	78.371
2120.000000	78.540
2140.000000	78.637
2180.000000	78.800
2200.000000	78.866
2240.000000	78.973
2270.000000	79.036
2300.000000	79.084
2330.000000	79.119
2360.000000	79.135
2400.000000	79.125
2430.000000	79.090
2470.000000	79.010
2500.000000	78.932
2540.000000	78.817
2580.000000	78.709
2620.000000	78.626
2650.000000	78.585
2690.000000	78.558
2720.000000	78.549
2760.000000	78.536
2800.000000	78.510
2850.000000	78.500
2900.000000	78.591
2950.000000	78.801
3000.000000	79.095
3040.000000	79.380
3070.000000	79.619
3110.000000	79.966
3150.000000	80.330
3200.000000	80.790
3250.000000	81.234
3300.000000	81.648
3350.000000	82.021
3400.000000	82.351
3450.000000	82.638
3500.000000	82.888
3550.000000	83.102
3600.000000	83.287
3650.000000	83.445
3700.000000	83.578
3750.000000	83.684
3820.000000	83.785
3870.000000	83.827
3950.000000	83.899
4000.000000	83.956
4060.000000	83.991
4120.000000	83.951
4180.000000	83.835
4250.000000	83.623
4310.000000	83.400
4370.000000	83.160
4440.000000	82.888
4500.000000	82.688
4550.000000	82.560
4620.000000	82.446
4680.000000	82.393
4750.000000	82.335
4820.000000	82.232
4870.000000	82.121
4940.000000	81.932
5000.000000	81.767
5080.000000	81.585
5150.000000	81.479
5220.000000	81.424
5300.000000	81.416
5380.000000	81.454
5450.000000	81.519
5520.000000	81.608
5600.000000	81.736
5700.000000	81.928
5800.000000	82.149
5900.000000	82.391
6000.000000	82.646
6080.000000	82.852
6150.000000	83.029
6220.000000	83.198
6300.000000	83.373
6400.000000	83.553
6500.000000	83.676
6600.000000	83.735
6700.000000	83.740
6800.000000	83.723
6900.000000	83.719
7000.000000	83.751
7100.000000	83.808
7200.000000	83.853
7300.000000	83.839
7400.000000	83.742
7500.000000	83.575
7620.000000	83.347
7750.000000	83.161
7880.000000	83.111
8000.000000	83.217
8120.000000	83.470
8250.000000	83.865
8380.000000	84.262
8500.000000	84.466
8620.000000	84.365
8750.000000	83.788
8850.000000	82.980
9000.000000	81.190
9120.000000	79.321
9250.000000	76.950
9380.000000	74.350
9500.000000	71.982
9620.000000	70.146
9750.000000	69.529
9880.000000	70.405
10000.000000	71.844
10150.000000	73.717
10300.000000	75.316
10440.000000	76.485
10600.000000	77.515
10750.000000	78.328
10900.000000	79.049
11060.000000	79.599
11200.000000	79.767
11380.000000	79.527
11500.000000	79.158
11720.000000	78.258
11800.000000	77.892
12060.000000	76.625
12200.000000	75.975
12410.000000	75.395
12500.000000	75.410
12650.000000	75.844
12800.000000	76.672
13150.000000	78.994
13200.000000	79.297
13400.000000	80.370
13600.000000	81.174
13800.000000	81.612
14000.000000	81.628
14300.000000	80.868
14500.000000	79.885
14750.000000	78.359
15000.000000	77.064
15250.000000	76.437
15500.000000	76.198
15750.000000	75.831
16000.000000	75.076
16250.000000	73.920
16500.000000	72.706
16750.000000	72.408
17000.000000	73.271
17250.000000	74.011
17500.000000	73.899
17750.000000	73.115
18000.000000	72.119
18250.000000	71.224
18500.000000	70.523
18750.000000	69.964
19000.000000	69.415
19250.000000	68.748
19500.000000	67.928
19750.000000	67.072
