* Measurement data measured by REW V5.20.13
* Source: EXCL: Headset (USB-C to 3.5mm Headphone Jack Adapter), MICROPHONE (Master Volume), 0, volume: 0.260. Timing signal peak level -37.7 dBFS, measurement signal peak level -33.3 dBFS
* Format: 256k Log Swept Sine, 1 sweep at -20.0 dBFS using an acoustic timing reference
* Dated: May 29, 2023 5:16:52 PM
* REW Settings:
*  C-weighting compensation: Off
*  Target level: 75.0 dB
* Note: Koss KPH30i Yaxi Pads
* Measurement: Koss KPH30i Yaxi Pads
* Smoothing: 1/12 octave
* Frequency Step: 1/48 octave
* Start Frequency: 20.000 Hz
*
* Freq(Hz)	SPL(dB)	Phase(degrees)
20.000000	66.986	-35.3199
20.299999	67.162	-36.0083
20.600000	67.315	-36.5191
20.900000	67.467	-36.8140
21.200001	67.641	-36.9669
21.400000	67.773	-37.0786
21.799999	68.059	-37.4557
22.000000	68.205	-37.7589
22.400000	68.479	-38.5659
22.700001	68.666	-39.2296
23.000000	68.846	-39.8315
23.299999	69.038	-40.3501
23.600000	69.253	-40.8374
24.000000	69.578	-41.5828
24.299999	69.840	-42.3235
24.700001	70.186	-43.6023
25.000000	70.429	-44.7311
25.400000	70.722	-46.3386
25.799999	70.984	-47.9290
26.200001	71.224	-49.4321
26.500000	71.391	-50.4936
26.900000	71.599	-51.8163
27.200001	71.744	-52.7262
27.600000	71.928	-53.8091
28.000000	72.109	-54.7489
28.500000	72.342	-55.8231
29.000000	72.576	-56.9621
29.500000	72.783	-58.2363
30.000000	72.946	-59.5122
30.400000	73.055	-60.3981
30.700001	73.135	-60.9555
31.100000	73.256	-61.6051
31.500000	73.397	-62.2429
32.000000	73.589	-63.1353
32.500000	73.785	-64.1106
33.000000	73.994	-65.0725
33.500000	74.230	-66.0558
34.000000	74.487	-67.2407
34.500000	74.725	-68.7079
35.000000	74.910	-70.2758
35.500000	75.050	-71.6295
36.000000	75.184	-72.6398
36.500000	75.337	-73.4439
37.000000	75.501	-74.2368
37.500000	75.657	-75.0380
38.200001	75.875	-76.0126
38.700001	76.059	-76.6899
39.500000	76.379	-78.3770
40.000000	76.533	-79.8740
40.599998	76.643	-81.7424
41.200001	76.715	-83.3271
41.799999	76.801	-84.6807
42.500000	76.921	-86.2434
43.099998	77.015	-87.5266
43.700001	77.113	-88.5672
44.400002	77.268	-89.5140
45.000000	77.437	-90.3032
45.500000	77.587	-91.0184
46.200001	77.799	-92.1206
46.799999	77.972	-93.2339
47.500000	78.122	-94.7747
48.200001	78.187	-96.2971
48.700001	78.198	-97.1685
49.400002	78.212	-98.0690
50.000000	78.242	-98.7247
50.799999	78.297	-99.5826
51.500000	78.363	-100.2711
52.200001	78.465	-100.9565
53.000000	78.617	-101.9421
53.799999	78.769	-103.2135
54.500000	78.880	-104.4533
55.200001	78.965	-105.6853
56.000000	79.040	-107.0125
57.000000	79.106	-108.5661
58.000000	79.144	-109.9057
59.000000	79.202	-111.0132
60.000000	79.298	-112.2612
60.799999	79.369	-113.4248
61.500000	79.420	-114.4386
62.200001	79.467	-115.3744
63.000000	79.523	-116.3143
64.000000	79.607	-117.2903
65.000000	79.713	-118.1667
66.000000	79.824	-119.0747
67.000000	79.923	-120.0245
68.000000	80.011	-121.0173
69.000000	80.086	-122.0811
70.000000	80.149	-123.2186
71.000000	80.202	-124.3978
72.000000	80.247	-125.5913
73.000000	80.286	-126.7810
74.000000	80.317	-127.9325
75.000000	80.341	-129.0148
76.199997	80.365	-130.2269
77.500000	80.384	-131.4857
78.800003	80.383	-132.6942
80.000000	80.366	-133.6785
81.199997	80.354	-134.5618
82.500000	80.343	-135.5300
83.800003	80.322	-136.4520
85.000000	80.308	-137.2147
86.199997	80.305	-137.9454
87.500000	80.313	-138.7283
88.500000	80.322	-139.3180
90.000000	80.338	-140.1686
91.199997	80.349	-140.8140
92.500000	80.360	-141.4942
93.800003	80.367	-142.1900
95.000000	80.368	-142.8591
96.199997	80.360	-143.5230
97.500000	80.344	-144.1696
98.800003	80.329	-144.6867
100.000000	80.323	-145.0552
101.500000	80.329	-145.4261
103.000000	80.347	-145.7599
104.400002	80.376	-146.0908
106.000000	80.425	-146.5303
107.500000	80.486	-147.0257
109.000000	80.556	-147.6375
110.599998	80.622	-148.4216
112.000000	80.662	-149.1861
113.800003	80.690	-150.2465
115.000000	80.698	-150.9969
117.199997	80.699	-152.4183
118.000000	80.696	-152.9172
120.599998	80.668	-154.2120
122.000000	80.652	-154.6512
124.099998	80.634	-155.1104
125.000000	80.630	-155.2876
126.500000	80.628	-155.6141
128.000000	80.632	-156.0146
131.500000	80.652	-157.2402
132.000000	80.654	-157.4330
134.000000	80.662	-158.2054
136.000000	80.669	-158.9630
138.000000	80.678	-159.7058
140.000000	80.686	-160.4388
143.000000	80.686	-161.4911
145.000000	80.671	-162.1465
147.500000	80.637	-162.9035
150.000000	80.600	-163.5803
152.500000	80.575	-164.2054
155.000000	80.559	-164.8188
157.500000	80.546	-165.4464
160.000000	80.527	-166.0835
162.500000	80.500	-166.6828
165.000000	80.467	-167.2237
167.500000	80.435	-167.7467
170.000000	80.405	-168.2963
172.500000	80.376	-168.8656
175.000000	80.347	-169.4238
177.500000	80.315	-169.9713
180.000000	80.283	-170.5216
182.500000	80.251	-171.0641
185.000000	80.217	-171.5829
187.500000	80.181	-172.0743
190.000000	80.140	-172.5292
192.500000	80.098	-172.9443
195.000000	80.059	-173.3313
197.500000	80.023	-173.7070
200.000000	79.987	-174.0849
203.000000	79.940	-174.5373
206.000000	79.887	-174.9621
209.000000	79.833	-175.3459
212.000000	79.777	-175.6933
214.000000	79.739	-175.9060
218.000000	79.661	-176.2885
220.000000	79.623	-176.4648
224.000000	79.552	-176.8024
227.000000	79.505	-177.0437
230.000000	79.462	-177.2702
233.000000	79.424	-177.4754
236.000000	79.389	-177.6548
240.000000	79.341	-177.8655
243.000000	79.301	-178.0183
247.000000	79.245	-178.2239
250.000000	79.205	-178.3767
254.000000	79.157	-178.5645
258.000000	79.114	-178.7323
262.000000	79.074	-178.9077
265.000000	79.042	-179.0480
269.000000	78.997	-179.2266
272.000000	78.963	-179.3503
276.000000	78.919	-179.5185
280.000000	78.877	-179.6961
285.000000	78.825	-179.9134
290.000000	78.773	179.8925
295.000000	78.716	179.7295
300.000000	78.658	179.5793
304.000000	78.612	179.4713
307.000000	78.577	179.4130
311.000000	78.530	179.3729
315.000000	78.486	179.3608
320.000000	78.435	179.3425
325.000000	78.386	179.2928
330.000000	78.338	179.2364
335.000000	78.290	179.2030
340.000000	78.244	179.1918
345.000000	78.197	179.1920
350.000000	78.152	179.2020
355.000000	78.108	179.2310
360.000000	78.068	179.2875
365.000000	78.030	179.3584
370.000000	77.991	179.4152
375.000000	77.955	179.4639
382.000000	77.909	179.5513
387.000000	77.878	179.6148
395.000000	77.830	179.7062
400.000000	77.800	179.7686
406.000000	77.764	179.8481
412.000000	77.725	179.9261
418.000000	77.684	-179.9850
425.000000	77.638	-179.8462
431.000000	77.600	-179.7006
437.000000	77.564	-179.5522
444.000000	77.526	-179.4000
450.000000	77.496	-179.2791
455.000000	77.474	-179.1711
462.000000	77.446	-178.9996
468.000000	77.426	-178.8394
475.000000	77.404	-178.6545
482.000000	77.380	-178.4885
487.000000	77.363	-178.3857
494.000000	77.338	-178.2586
500.000000	77.316	-178.1538
508.000000	77.284	-178.0012
515.000000	77.254	-177.8454
522.000000	77.224	-177.6639
530.000000	77.193	-177.4266
538.000000	77.166	-177.1633
545.000000	77.146	-176.9187
552.000000	77.131	-176.6726
560.000000	77.119	-176.4129
570.000000	77.111	-176.1410
580.000000	77.104	-175.9250
590.000000	77.095	-175.7639
600.000000	77.081	-175.6431
608.000000	77.062	-175.5513
615.000000	77.040	-175.4581
622.000000	77.013	-175.3401
630.000000	76.977	-175.1598
640.000000	76.930	-174.8487
650.000000	76.892	-174.4523
660.000000	76.869	-174.0255
670.000000	76.859	-173.6273
680.000000	76.855	-173.2812
690.000000	76.851	-172.9824
700.000000	76.845	-172.7122
710.000000	76.841	-172.4456
720.000000	76.837	-172.1743
730.000000	76.832	-171.9133
740.000000	76.825	-171.6697
750.000000	76.814	-171.4457
762.000000	76.794	-171.1845
775.000000	76.765	-170.8449
788.000000	76.738	-170.3905
800.000000	76.724	-169.8932
812.000000	76.720	-169.4015
825.000000	76.723	-168.9341
838.000000	76.726	-168.5193
850.000000	76.726	-168.1351
862.000000	76.725	-167.7211
875.000000	76.726	-167.2451
885.000000	76.730	-166.8721
900.000000	76.741	-166.3192
912.000000	76.753	-165.8911
925.000000	76.768	-165.4389
938.000000	76.784	-164.9894
950.000000	76.801	-164.5725
962.000000	76.821	-164.1579
975.000000	76.845	-163.7201
988.000000	76.871	-163.2999
1000.000000	76.895	-162.9299
1015.000000	76.923	-162.4834
1030.000000	76.949	-162.0292
1044.000000	76.975	-161.5836
1060.000000	77.009	-161.0615
1075.000000	77.045	-160.5855
1090.000000	77.082	-160.1404
1106.000000	77.119	-159.6913
1120.000000	77.149	-159.2972
1138.000000	77.188	-158.7607
1150.000000	77.217	-158.3802
1172.000000	77.278	-157.6617
1180.000000	77.303	-157.4004
1206.000000	77.392	-156.5495
1220.000000	77.447	-156.0995
1241.000000	77.537	-155.4774
1250.000000	77.577	-155.2352
1265.000000	77.643	-154.8584
1280.000000	77.709	-154.5028
1315.000000	77.868	-153.6998
1320.000000	77.892	-153.5880
1340.000000	77.990	-153.1569
1360.000000	78.091	-152.7733
1380.000000	78.191	-152.4570
1400.000000	78.283	-152.1772
1430.000000	78.415	-151.7142
1450.000000	78.513	-151.3896
1475.000000	78.647	-151.0532
1500.000000	78.785	-150.8142
1525.000000	78.919	-150.6736
1550.000000	79.038	-150.6117
1575.000000	79.141	-150.4975
1600.000000	79.252	-150.3084
1625.000000	79.375	-150.2075
1650.000000	79.486	-150.1986
1675.000000	79.586	-150.1226
1700.000000	79.696	-149.9465
1725.000000	79.830	-149.7704
1750.000000	79.983	-149.7052
1775.000000	80.145	-149.8324
1800.000000	80.298	-150.1791
1825.000000	80.426	-150.6915
1850.000000	80.521	-151.2606
1875.000000	80.585	-151.7644
1900.000000	80.631	-152.0896
1925.000000	80.682	-152.1670
1950.000000	80.772	-152.0677
1975.000000	80.913	-152.0814
2000.000000	81.071	-152.4713
2030.000000	81.221	-153.3513
2060.000000	81.315	-154.3583
2090.000000	81.366	-155.3304
2120.000000	81.379	-156.1493
2140.000000	81.379	-156.5486
2180.000000	81.399	-157.0858
2200.000000	81.424	-157.3147
2240.000000	81.496	-157.8664
2270.000000	81.554	-158.4223
2300.000000	81.603	-159.1062
2330.000000	81.630	-159.8979
2360.000000	81.624	-160.7090
2400.000000	81.569	-161.5851
2430.000000	81.512	-161.9601
2470.000000	81.463	-162.1212
2500.000000	81.463	-162.1638
2540.000000	81.498	-162.3555
2580.000000	81.543	-162.7753
2620.000000	81.576	-163.3773
2650.000000	81.582	-163.8929
2690.000000	81.562	-164.5351
2720.000000	81.533	-164.8921
2760.000000	81.503	-165.1910
2800.000000	81.495	-165.4097
2850.000000	81.508	-165.7306
2900.000000	81.526	-166.1038
2950.000000	81.563	-166.4369
3000.000000	81.635	-166.9150
3040.000000	81.691	-167.5357
3070.000000	81.715	-168.0844
3110.000000	81.717	-168.7125
3150.000000	81.717	-168.9890
3200.000000	81.814	-168.8838
3250.000000	82.086	-168.9441
3300.000000	82.487	-170.0748
3350.000000	82.885	-172.7184
3400.000000	83.174	-176.7004
3450.000000	83.301	178.4819
3500.000000	83.264	173.3668
3550.000000	83.091	168.2922
3600.000000	82.805	163.4281
3650.000000	82.438	158.8697
3700.000000	82.026	154.5284
3750.000000	81.595	150.1443
3820.000000	80.960	143.3651
3870.000000	80.460	137.6077
3950.000000	79.429	126.1966
4000.000000	78.532	117.8437
4060.000000	77.137	106.8323
4120.000000	75.392	94.3218
4180.000000	73.313	79.2677
4250.000000	70.651	56.5601
4310.000000	68.813	31.8333
4370.000000	68.490	4.4698
4440.000000	70.130	-24.7413
4500.000000	72.159	-44.0472
4550.000000	73.832	-56.2045
4620.000000	75.952	-69.3307
4680.000000	77.525	-78.8254
4750.000000	79.069	-89.3746
4820.000000	80.293	-100.1219
4870.000000	80.969	-108.0567
4940.000000	81.634	-119.4355
5000.000000	81.945	-129.2106
5080.000000	82.008	-141.8013
5150.000000	81.760	-151.9830
5220.000000	81.256	-161.0107
5300.000000	80.413	-169.5406
5380.000000	79.343	-175.8890
5450.000000	78.264	-179.4662
5520.000000	77.095	178.9778
5600.000000	75.731	179.7586
5700.000000	74.202	-175.7377
5800.000000	73.250	-168.9014
5900.000000	73.065	-163.1603
6000.000000	73.187	-160.8676
6080.000000	73.144	-160.8286
6150.000000	72.930	-160.9001
6220.000000	72.592	-160.2837
6300.000000	72.156	-158.3311
6400.000000	71.731	-154.1871
6500.000000	71.630	-149.1772
6600.000000	71.877	-144.7351
6700.000000	72.318	-141.8782
6800.000000	72.765	-140.8520
6900.000000	73.086	-141.2061
7000.000000	73.244	-142.0854
7100.000000	73.289	-142.8641
7200.000000	73.271	-143.4256
7300.000000	73.201	-143.7852
7400.000000	73.081	-143.7744
7500.000000	72.953	-143.1852
7620.000000	72.888	-141.8726
7750.000000	72.988	-140.6320
7880.000000	73.165	-140.5493
8000.000000	73.247	-141.5368
8120.000000	73.176	-142.8426
8250.000000	72.959	-143.7534
8380.000000	72.711	-143.8545
8500.000000	72.537	-143.7070
8620.000000	72.386	-143.8156
8750.000000	72.168	-144.0632
8850.000000	71.959	-143.9622
9000.000000	71.681	-143.1288
9120.000000	71.567	-142.4021
9250.000000	71.515	-142.2468
9380.000000	71.433	-142.6941
9500.000000	71.311	-143.0692
9620.000000	71.228	-143.1249
9750.000000	71.297	-143.3448
9880.000000	71.529	-144.8923
10000.000000	71.747	-148.3152
10150.000000	71.781	-155.1476
10300.000000	71.399	-163.3276
10440.000000	70.651	-170.5944
10600.000000	69.370	-176.8708
10750.000000	67.805	-179.2649
10900.000000	65.981	-176.5954
11060.000000	64.089	-166.5433
11200.000000	63.281	-152.4503
11380.000000	64.372	-134.3268
11500.000000	65.810	-127.0521
11720.000000	68.254	-126.2410
11800.000000	68.957	-128.9008
12060.000000	70.568	-142.6034
12200.000000	71.079	-151.1781
12410.000000	71.521	-163.8678
12500.000000	71.630	-169.0819
12650.000000	71.758	-177.5063
12800.000000	71.857	174.1187
13150.000000	71.995	151.7869
13200.000000	71.977	148.0007
13400.000000	71.676	131.2015
13600.000000	70.819	113.4031
13800.000000	69.210	99.7191
14000.000000	66.813	97.6724
14300.000000	62.858	120.8844
14500.000000	62.120	138.0876
14750.000000	63.311	142.4133
15000.000000	64.287	130.2941
15250.000000	64.266	112.2994
15500.000000	63.399	96.0044
15750.000000	62.202	83.0601
16000.000000	61.167	70.3712
16250.000000	60.256	55.6368
16500.000000	59.206	39.9039
16750.000000	58.096	24.6661
17000.000000	57.323	8.9128
17250.000000	57.062	-9.7982
17500.000000	57.041	-32.4111
17750.000000	56.969	-57.8192
18000.000000	56.762	-84.2503
18250.000000	56.496	-110.4653
18500.000000	56.338	-136.3203
18750.000000	56.448	-162.7078
19000.000000	56.845	168.9441
19250.000000	57.366	137.7798
19500.000000	57.791	105.1598
19750.000000	58.004	75.9852
