* Measurement data measured by REW V5.20.13
* Source: EXCL: Headset (USB-C to 3.5mm Headphone Jack Adapter), MICROPHONE (Master Volume), 0, volume: 0.260. Timing signal peak level -35.4 dBFS, measurement signal peak level -31.8 dBFS
* Format: 256k Log Swept Sine, 1 sweep at -20.0 dBFS using an acoustic timing reference
* Dated: May 29, 2023 6:46:58 PM
* REW Settings:
*  C-weighting compensation: Off
*  Target level: 75.0 dB
* Note: Koss KPH30i Stock Pads
* Measurement: Koss KPH30i Stock Pads
* Smoothing: 1/12 octave
* Frequency Step: 1/48 octave
* Start Frequency: 20.000 Hz
*
* Freq(Hz)	SPL(dB)	Phase(degrees)
20.000000	59.913	-6.4556
20.299999	60.220	-6.4307
20.600000	60.573	-6.2673
20.900000	60.961	-5.9773
21.200001	61.393	-5.5144
21.400000	61.718	-5.1549
21.799999	62.447	-4.6019
22.000000	62.833	-4.5774
22.400000	63.577	-5.3430
22.700001	64.049	-6.6136
23.000000	64.412	-8.2125
23.299999	64.675	-9.7556
23.600000	64.871	-10.9911
24.000000	65.102	-12.0454
24.299999	65.293	-12.6050
24.700001	65.573	-13.5142
25.000000	65.763	-14.5403
25.400000	65.934	-16.2990
25.799999	65.997	-18.0352
26.200001	66.005	-19.3118
26.500000	66.028	-19.9750
26.900000	66.121	-20.7880
27.200001	66.229	-21.6282
27.600000	66.371	-23.2291
28.000000	66.452	-25.1519
28.500000	66.460	-27.2363
29.000000	66.473	-28.3602
29.500000	66.611	-28.7523
30.000000	66.886	-29.1286
30.400000	67.148	-29.6943
30.700001	67.340	-30.2354
31.100000	67.577	-30.9225
31.500000	67.810	-31.3912
32.000000	68.144	-31.6007
32.500000	68.568	-31.7255
33.000000	69.049	-32.4044
33.500000	69.487	-34.0386
34.000000	69.784	-36.4191
34.500000	69.912	-38.7932
35.000000	69.936	-40.4787
35.500000	69.974	-41.3243
36.000000	70.107	-41.7586
36.500000	70.340	-42.3179
37.000000	70.629	-43.3135
37.500000	70.930	-44.7995
38.200001	71.302	-47.5901
38.700001	71.483	-49.8117
39.500000	71.630	-52.6350
40.000000	71.717	-53.5699
40.599998	71.902	-54.1906
41.200001	72.150	-54.9504
41.799999	72.375	-56.0514
42.500000	72.568	-57.3793
43.099998	72.714	-58.3333
43.700001	72.874	-59.3077
44.400002	73.063	-60.7912
45.000000	73.187	-62.4075
45.500000	73.244	-63.8163
46.200001	73.270	-65.4237
46.799999	73.313	-66.1837
47.500000	73.485	-66.6532
48.200001	73.769	-67.4003
48.700001	73.982	-68.2864
49.400002	74.237	-69.7784
50.000000	74.416	-71.0067
50.799999	74.624	-72.4066
51.500000	74.797	-73.4199
52.200001	74.983	-74.3535
53.000000	75.214	-75.6387
53.799999	75.422	-77.3256
54.500000	75.571	-78.9761
55.200001	75.704	-80.6599
56.000000	75.845	-82.5829
57.000000	76.016	-84.8303
58.000000	76.193	-86.9022
59.000000	76.331	-88.8177
60.000000	76.428	-90.1818
60.799999	76.524	-90.9641
61.500000	76.618	-91.6760
62.200001	76.704	-92.4934
63.000000	76.785	-93.5306
64.000000	76.867	-94.9464
65.000000	76.935	-96.4401
66.000000	77.005	-97.9463
67.000000	77.090	-99.4548
68.000000	77.184	-100.9824
69.000000	77.272	-102.4907
70.000000	77.349	-103.8888
71.000000	77.423	-105.1515
72.000000	77.500	-106.3577
73.000000	77.575	-107.5688
74.000000	77.644	-108.7803
75.000000	77.708	-109.9805
76.199997	77.778	-111.3925
77.500000	77.849	-112.8588
78.800003	77.918	-114.2738
80.000000	77.980	-115.5973
81.199997	78.034	-116.9462
82.500000	78.086	-118.4246
83.800003	78.129	-119.9127
85.000000	78.161	-121.2552
86.199997	78.189	-122.5527
87.500000	78.216	-123.9148
88.500000	78.236	-124.9381
90.000000	78.261	-126.4385
91.199997	78.277	-127.6116
92.500000	78.290	-128.8646
93.800003	78.293	-130.0974
95.000000	78.287	-131.1951
96.199997	78.273	-132.2358
97.500000	78.255	-133.2971
98.800003	78.236	-134.2963
100.000000	78.218	-135.1652
101.500000	78.198	-136.1844
103.000000	78.180	-137.1469
104.400002	78.167	-138.0020
106.000000	78.162	-138.9474
107.500000	78.163	-139.8208
109.000000	78.161	-140.6776
110.599998	78.146	-141.5459
112.000000	78.120	-142.2727
113.800003	78.075	-143.2137
115.000000	78.043	-143.8693
117.199997	77.988	-145.0789
118.000000	77.972	-145.4805
120.599998	77.949	-146.5552
122.000000	77.950	-147.0305
124.099998	77.958	-147.7020
125.000000	77.962	-147.9966
126.500000	77.966	-148.5185
128.000000	77.966	-149.0782
131.500000	77.943	-150.4296
132.000000	77.939	-150.6232
134.000000	77.919	-151.4159
136.000000	77.896	-152.2427
138.000000	77.864	-153.0430
140.000000	77.828	-153.7492
143.000000	77.783	-154.6837
145.000000	77.759	-155.2878
147.500000	77.734	-156.0229
150.000000	77.713	-156.7260
152.500000	77.686	-157.4050
155.000000	77.649	-158.0690
157.500000	77.606	-158.7191
160.000000	77.573	-159.3348
162.500000	77.555	-159.9227
165.000000	77.539	-160.5209
167.500000	77.510	-161.1154
170.000000	77.475	-161.6725
172.500000	77.443	-162.2048
175.000000	77.413	-162.7283
177.500000	77.378	-163.2345
180.000000	77.344	-163.7361
182.500000	77.310	-164.2407
185.000000	77.277	-164.7402
187.500000	77.242	-165.2440
190.000000	77.208	-165.7657
192.500000	77.176	-166.2909
195.000000	77.142	-166.7822
197.500000	77.101	-167.2194
200.000000	77.052	-167.6169
203.000000	76.986	-168.0648
206.000000	76.924	-168.4721
209.000000	76.870	-168.8113
212.000000	76.826	-169.0880
214.000000	76.800	-169.2592
218.000000	76.748	-169.6251
220.000000	76.719	-169.8232
224.000000	76.658	-170.2241
227.000000	76.611	-170.5118
230.000000	76.562	-170.7745
233.000000	76.511	-171.0082
236.000000	76.457	-171.2188
240.000000	76.387	-171.4850
243.000000	76.341	-171.6986
247.000000	76.282	-171.9879
250.000000	76.234	-172.1759
254.000000	76.165	-172.3815
258.000000	76.097	-172.5381
262.000000	76.039	-172.6606
265.000000	76.003	-172.7380
269.000000	75.953	-172.8129
272.000000	75.915	-172.8530
276.000000	75.864	-172.9075
280.000000	75.816	-172.9731
285.000000	75.764	-173.0425
290.000000	75.715	-173.0909
295.000000	75.665	-173.1214
300.000000	75.615	-173.1343
304.000000	75.575	-173.1271
307.000000	75.546	-173.1097
311.000000	75.509	-173.0842
315.000000	75.473	-173.0717
320.000000	75.428	-173.0714
325.000000	75.381	-173.0693
330.000000	75.334	-173.0525
335.000000	75.290	-173.0164
340.000000	75.248	-172.9555
345.000000	75.208	-172.8785
350.000000	75.168	-172.8063
355.000000	75.129	-172.7466
360.000000	75.091	-172.6827
365.000000	75.057	-172.5884
370.000000	75.025	-172.4690
375.000000	74.994	-172.3414
382.000000	74.947	-172.1541
387.000000	74.914	-172.0107
395.000000	74.864	-171.7800
400.000000	74.835	-171.6406
406.000000	74.801	-171.4764
412.000000	74.767	-171.3167
418.000000	74.732	-171.1426
425.000000	74.693	-170.9015
431.000000	74.664	-170.6791
437.000000	74.640	-170.4321
444.000000	74.620	-170.0984
450.000000	74.605	-169.8085
455.000000	74.593	-169.5893
462.000000	74.576	-169.3248
468.000000	74.561	-169.1282
475.000000	74.543	-168.9164
482.000000	74.525	-168.7061
487.000000	74.512	-168.5505
494.000000	74.493	-168.3165
500.000000	74.475	-168.0958
508.000000	74.448	-167.7845
515.000000	74.424	-167.5063
522.000000	74.402	-167.2086
530.000000	74.381	-166.8278
538.000000	74.365	-166.4235
545.000000	74.355	-166.0788
552.000000	74.348	-165.7510
560.000000	74.342	-165.3895
570.000000	74.339	-164.9474
580.000000	74.338	-164.5145
590.000000	74.338	-164.0983
600.000000	74.337	-163.6910
608.000000	74.336	-163.3588
615.000000	74.336	-163.0676
622.000000	74.335	-162.7820
630.000000	74.335	-162.4609
640.000000	74.335	-162.0597
650.000000	74.334	-161.6588
660.000000	74.330	-161.2513
670.000000	74.325	-160.8142
680.000000	74.323	-160.3351
690.000000	74.332	-159.8358
700.000000	74.348	-159.3488
710.000000	74.368	-158.8970
720.000000	74.391	-158.4833
730.000000	74.414	-158.0953
740.000000	74.436	-157.7275
750.000000	74.454	-157.3772
762.000000	74.471	-156.9720
775.000000	74.485	-156.5324
788.000000	74.497	-156.0621
800.000000	74.508	-155.5901
812.000000	74.518	-155.0973
825.000000	74.526	-154.5490
838.000000	74.534	-153.9835
850.000000	74.545	-153.4344
862.000000	74.563	-152.8571
875.000000	74.590	-152.2183
885.000000	74.615	-151.7335
900.000000	74.657	-151.0281
912.000000	74.694	-150.4777
925.000000	74.734	-149.8934
938.000000	74.774	-149.3259
950.000000	74.811	-148.8127
962.000000	74.849	-148.3036
975.000000	74.889	-147.7527
988.000000	74.929	-147.1965
1000.000000	74.967	-146.6721
1015.000000	75.016	-145.9982
1030.000000	75.069	-145.3088
1044.000000	75.120	-144.6561
1060.000000	75.183	-143.9033
1075.000000	75.248	-143.2043
1090.000000	75.316	-142.5183
1106.000000	75.392	-141.7894
1120.000000	75.461	-141.1460
1138.000000	75.555	-140.3177
1150.000000	75.623	-139.7743
1172.000000	75.756	-138.8184
1180.000000	75.806	-138.4865
1206.000000	75.972	-137.4536
1220.000000	76.064	-136.9164
1241.000000	76.205	-136.1260
1250.000000	76.267	-135.7889
1265.000000	76.373	-135.2304
1280.000000	76.482	-134.6883
1315.000000	76.744	-133.5190
1320.000000	76.782	-133.3596
1340.000000	76.937	-132.7346
1360.000000	77.098	-132.1355
1380.000000	77.262	-131.5660
1400.000000	77.430	-131.0210
1430.000000	77.698	-130.3085
1450.000000	77.881	-129.9481
1475.000000	78.107	-129.6215
1500.000000	78.323	-129.4274
1525.000000	78.518	-129.3096
1550.000000	78.692	-129.1379
1575.000000	78.865	-128.8589
1600.000000	79.046	-128.5106
1625.000000	79.234	-128.1261
1650.000000	79.431	-127.6876
1675.000000	79.654	-127.2169
1700.000000	79.907	-126.8270
1725.000000	80.179	-126.6007
1750.000000	80.456	-126.5413
1775.000000	80.734	-126.6243
1800.000000	81.010	-126.8474
1825.000000	81.281	-127.2269
1850.000000	81.540	-127.7302
1875.000000	81.788	-128.2737
1900.000000	82.037	-128.7899
1925.000000	82.307	-129.3024
1950.000000	82.607	-130.0046
1975.000000	82.910	-131.1202
2000.000000	83.172	-132.6263
2030.000000	83.420	-134.6929
2060.000000	83.600	-136.8270
2090.000000	83.722	-138.8758
2120.000000	83.805	-140.7253
2140.000000	83.851	-141.8532
2180.000000	83.928	-143.9877
2200.000000	83.956	-144.9827
2240.000000	84.015	-146.8258
2270.000000	84.059	-148.2607
2300.000000	84.075	-149.7659
2330.000000	84.054	-151.1495
2360.000000	84.019	-152.2709
2400.000000	83.996	-153.3864
2430.000000	84.020	-154.1280
2470.000000	84.095	-155.3669
2500.000000	84.149	-156.5901
2540.000000	84.178	-158.5125
2580.000000	84.141	-160.5301
2620.000000	84.040	-162.3934
2650.000000	83.936	-163.5840
2690.000000	83.779	-164.9009
2720.000000	83.653	-165.7151
2760.000000	83.474	-166.5070
2800.000000	83.311	-166.9158
2850.000000	83.166	-167.1071
2900.000000	83.081	-167.2854
2950.000000	83.017	-167.4570
3000.000000	82.985	-167.4110
3040.000000	83.013	-167.3103
3070.000000	83.064	-167.2997
3110.000000	83.163	-167.4172
3150.000000	83.294	-167.6339
3200.000000	83.538	-168.0605
3250.000000	83.888	-169.1317
3300.000000	84.269	-171.3894
3350.000000	84.584	-174.8220
3400.000000	84.793	-179.0641
3450.000000	84.902	176.1272
3500.000000	84.898	170.8083
3550.000000	84.747	165.2316
3600.000000	84.456	159.8568
3650.000000	84.091	154.8716
3700.000000	83.725	149.9303
3750.000000	83.374	144.3723
3820.000000	82.794	134.6347
3870.000000	82.202	126.2127
3950.000000	80.795	110.5486
4000.000000	79.552	99.6650
4060.000000	77.628	85.7446
4120.000000	75.241	70.2150
4180.000000	72.526	51.1838
4250.000000	69.686	22.6254
4310.000000	69.030	-5.2587
4370.000000	70.426	-31.0383
4440.000000	72.940	-53.7924
4500.000000	75.019	-67.3730
4550.000000	76.579	-75.9976
4620.000000	78.511	-85.9576
4680.000000	79.959	-93.7812
4750.000000	81.415	-103.0573
4820.000000	82.613	-113.0180
4870.000000	83.299	-120.6549
4940.000000	84.006	-132.0039
5000.000000	84.365	-142.1348
5080.000000	84.478	-155.6650
5150.000000	84.253	-166.9165
5220.000000	83.764	-177.1460
5300.000000	82.936	172.7466
5380.000000	81.877	164.5176
5450.000000	80.799	158.9679
5520.000000	79.606	155.1147
5600.000000	78.138	153.0886
5700.000000	76.307	154.2167
5800.000000	74.835	157.7047
5900.000000	73.904	160.3799
6000.000000	73.165	161.0732
6080.000000	72.427	161.3989
6150.000000	71.620	162.7478
6220.000000	70.730	165.6604
6300.000000	69.771	170.6821
6400.000000	68.873	178.3013
6500.000000	68.380	-173.7847
6600.000000	68.251	-166.0923
6700.000000	68.462	-159.2101
6800.000000	68.864	-154.1964
6900.000000	69.202	-151.1382
7000.000000	69.378	-148.7550
7100.000000	69.490	-146.0146
7200.000000	69.654	-142.9558
7300.000000	69.885	-139.9856
7400.000000	70.159	-137.1814
7500.000000	70.494	-134.3315
7620.000000	71.079	-130.9003
7750.000000	71.978	-128.3102
7880.000000	72.946	-128.3862
8000.000000	73.666	-131.0486
8120.000000	74.106	-135.2991
8250.000000	74.279	-140.3574
8380.000000	74.221	-145.0007
8500.000000	74.039	-148.7097
8620.000000	73.772	-151.8916
8750.000000	73.420	-154.7698
8850.000000	73.129	-156.6285
9000.000000	72.691	-159.0173
9120.000000	72.356	-160.7690
9250.000000	72.007	-162.6084
9380.000000	71.684	-164.3667
9500.000000	71.448	-165.9674
9620.000000	71.323	-167.7654
9750.000000	71.369	-170.5247
9880.000000	71.589	-175.0851
10000.000000	71.849	178.3403
10150.000000	72.078	166.4816
10300.000000	72.060	150.8059
10440.000000	71.768	133.3191
10600.000000	71.155	110.6842
10750.000000	70.445	87.2661
10900.000000	69.771	61.9508
11060.000000	69.236	33.6951
11200.000000	68.989	9.2527
11380.000000	69.027	-19.6461
11500.000000	69.293	-36.7308
11720.000000	70.150	-64.4341
11800.000000	70.498	-73.8312
12060.000000	71.363	-103.1810
12200.000000	71.554	-117.9969
12410.000000	71.500	-137.9805
12500.000000	71.392	-145.6338
12650.000000	71.157	-157.3805
12800.000000	70.892	-168.3428
13150.000000	70.055	166.1245
13200.000000	69.870	162.4219
13400.000000	68.849	148.3932
13600.000000	67.304	137.7451
13800.000000	65.256	133.2390
14000.000000	62.964	135.4443
14300.000000	60.295	144.8057
14500.000000	59.593	150.7469
14750.000000	59.847	156.2797
15000.000000	60.932	157.1139
15250.000000	61.965	150.1528
15500.000000	62.383	137.3275
15750.000000	62.256	122.6639
16000.000000	61.845	107.4476
16250.000000	61.237	91.4067
16500.000000	60.445	74.9161
16750.000000	59.614	58.2903
17000.000000	58.992	40.6721
17250.000000	58.705	20.3613
17500.000000	58.587	-3.7838
17750.000000	58.323	-30.8774
18000.000000	57.786	-58.2446
18250.000000	57.213	-84.0569
18500.000000	56.990	-109.1173
18750.000000	57.251	-135.5996
19000.000000	57.814	-165.1746
19250.000000	58.400	161.7664
19500.000000	58.779	127.1691
19750.000000	58.879	96.5013
