* Measurement data measured by REW V5.20.13
* Source: EXCL: Headset (USB-C to 3.5mm Headphone Jack Adapter), MICROPHONE (Master Volume), 0, volume: 0.260. Timing signal peak level -36.9 dBFS, measurement signal peak level -33.2 dBFS
* Format: 256k Log Swept Sine, 1 sweep at -20.0 dBFS using an acoustic timing reference
* Dated: May 29, 2023 5:13:22 PM
* REW Settings:
*  C-weighting compensation: Off
*  Target level: 75.0 dB
* Note: Koss KTXPRO1 Yaxi Pads
* Measurement: Koss KTXPRO1 Yaxi Pads
* Smoothing: 1/12 octave
* Frequency Step: 1/48 octave
* Start Frequency: 20.000 Hz
*
* Freq(Hz)	SPL(dB)	Phase(degrees)
20.000000	56.569	6.1980
20.299999	56.601	0.5352
20.600000	56.354	-3.4030
20.900000	55.995	-4.7083
21.200001	55.788	-3.4865
21.400000	55.877	-2.0197
21.799999	56.530	0.6445
22.000000	56.994	1.0271
22.400000	57.865	-0.9773
22.700001	58.304	-4.3430
23.000000	58.504	-8.1809
23.299999	58.500	-11.4353
23.600000	58.367	-13.4821
24.000000	58.162	-13.9952
24.299999	58.127	-13.1085
24.700001	58.332	-11.2751
25.000000	58.639	-10.1627
25.400000	59.135	-9.5996
25.799999	59.602	-10.0843
26.200001	59.981	-11.2123
26.500000	60.206	-12.2095
26.900000	60.443	-13.5229
27.200001	60.588	-14.4347
27.600000	60.750	-15.5610
28.000000	60.874	-16.6215
28.500000	60.965	-17.7691
29.000000	60.997	-18.3529
29.500000	61.056	-18.0609
30.000000	61.269	-17.2091
30.400000	61.573	-16.7604
30.700001	61.847	-16.8714
31.100000	62.204	-17.7512
31.500000	62.500	-19.2938
32.000000	62.766	-21.6248
32.500000	62.946	-23.9560
33.000000	63.062	-26.1294
33.500000	63.111	-27.9358
34.000000	63.134	-28.8591
34.500000	63.275	-28.6680
35.000000	63.659	-28.0480
35.500000	64.222	-28.3202
36.000000	64.756	-30.1579
36.500000	65.114	-32.9804
37.000000	65.311	-35.5509
37.500000	65.470	-37.1974
38.200001	65.803	-38.6050
38.700001	66.080	-39.8119
39.500000	66.379	-42.0560
40.000000	66.479	-42.9261
40.599998	66.612	-43.1357
41.200001	66.829	-42.9230
41.799999	67.100	-42.8957
42.500000	67.392	-43.3221
43.099998	67.591	-43.7732
43.700001	67.786	-44.0808
44.400002	68.059	-44.5676
45.000000	68.296	-45.5089
45.500000	68.449	-46.6222
46.200001	68.598	-48.2148
46.799999	68.717	-49.4020
47.500000	68.876	-50.8102
48.200001	69.020	-52.2968
48.700001	69.110	-53.2317
49.400002	69.244	-54.2270
50.000000	69.380	-54.8274
50.799999	69.606	-55.2440
51.500000	69.884	-55.4425
52.200001	70.208	-56.1077
53.000000	70.494	-57.7650
53.799999	70.618	-59.7006
54.500000	70.648	-61.1013
55.200001	70.673	-62.2694
56.000000	70.729	-63.6553
57.000000	70.803	-65.8219
58.000000	70.832	-67.6985
59.000000	71.008	-68.3799
60.000000	71.446	-69.1264
60.799999	71.834	-70.4111
61.500000	72.134	-71.7106
62.200001	72.399	-72.9483
63.000000	72.648	-74.2700
64.000000	72.865	-75.7112
65.000000	73.010	-76.8750
66.000000	73.129	-78.0194
67.000000	73.241	-79.3841
68.000000	73.366	-80.9793
69.000000	73.525	-82.6566
70.000000	73.728	-84.2357
71.000000	73.965	-85.5775
72.000000	74.204	-86.5838
73.000000	74.412	-87.1801
74.000000	74.580	-87.4076
75.000000	74.706	-87.5175
76.199997	74.800	-87.8956
77.500000	74.846	-89.0538
78.800003	74.852	-91.0653
80.000000	74.897	-93.4168
81.199997	74.983	-96.2385
82.500000	75.045	-98.7794
83.800003	75.195	-100.1599
85.000000	75.389	-101.6518
86.199997	75.497	-103.3767
87.500000	75.556	-104.8634
88.500000	75.600	-105.7413
90.000000	75.669	-106.7837
91.199997	75.725	-107.3771
92.500000	75.800	-107.8586
93.800003	75.892	-108.4491
95.000000	75.972	-109.3004
96.199997	76.036	-110.4532
97.500000	76.100	-111.8986
98.800003	76.185	-113.4151
100.000000	76.288	-114.8278
101.500000	76.428	-116.5158
103.000000	76.555	-118.0157
104.400002	76.651	-119.2683
106.000000	76.740	-120.6454
107.500000	76.816	-121.9930
109.000000	76.889	-123.4353
110.599998	76.955	-124.9914
112.000000	76.997	-126.2518
113.800003	77.049	-127.7249
115.000000	77.091	-128.7305
117.199997	77.178	-130.8388
118.000000	77.207	-131.6802
120.599998	77.256	-134.3167
122.000000	77.254	-135.4494
124.099998	77.244	-136.8941
125.000000	77.238	-137.5229
126.500000	77.226	-138.6443
128.000000	77.220	-139.8446
131.500000	77.250	-142.6615
132.000000	77.254	-143.0299
134.000000	77.250	-144.3288
136.000000	77.209	-145.3947
138.000000	77.143	-146.4343
140.000000	77.075	-147.5620
143.000000	77.018	-149.2853
145.000000	77.008	-150.3858
147.500000	76.993	-151.7698
150.000000	76.962	-153.1798
152.500000	76.924	-154.4645
155.000000	76.876	-155.5100
157.500000	76.808	-156.4469
160.000000	76.730	-157.5701
162.500000	76.637	-159.0341
165.000000	76.510	-160.6830
167.500000	76.384	-162.2165
170.000000	76.332	-163.4741
172.500000	76.339	-164.3978
175.000000	76.336	-164.8141
177.500000	76.320	-164.9566
180.000000	76.291	-165.3485
182.500000	76.236	-165.9833
185.000000	76.165	-166.6176
187.500000	76.100	-167.2149
190.000000	76.049	-167.8673
192.500000	76.003	-168.5739
195.000000	75.956	-169.2845
197.500000	75.909	-170.0006
200.000000	75.864	-170.7203
203.000000	75.811	-171.5391
206.000000	75.754	-172.2876
209.000000	75.693	-173.0192
212.000000	75.627	-173.7838
214.000000	75.581	-174.3178
218.000000	75.483	-175.4285
220.000000	75.429	-175.9943
224.000000	75.308	-177.1224
227.000000	75.203	-177.9341
230.000000	75.084	-178.6753
233.000000	74.955	-179.3198
236.000000	74.823	-179.8528
240.000000	74.651	179.6644
243.000000	74.531	179.4882
247.000000	74.390	179.3774
250.000000	74.305	179.3120
254.000000	74.232	179.2933
258.000000	74.204	179.5234
262.000000	74.172	179.8698
265.000000	74.107	179.8902
269.000000	73.964	179.5978
272.000000	73.854	179.3778
276.000000	73.728	179.1839
280.000000	73.616	178.9326
285.000000	73.465	178.3591
290.000000	73.296	178.0959
295.000000	73.137	178.5452
300.000000	73.055	179.1312
304.000000	73.034	179.2992
307.000000	73.016	179.2779
311.000000	72.988	179.2230
315.000000	72.966	179.1966
320.000000	72.940	179.1968
325.000000	72.903	179.2722
330.000000	72.851	179.4082
335.000000	72.784	179.6306
340.000000	72.704	179.9741
345.000000	72.607	-179.7040
350.000000	72.495	-179.7003
355.000000	72.398	179.8678
360.000000	72.335	179.3753
365.000000	72.300	179.2320
370.000000	72.280	179.3574
375.000000	72.250	179.5149
382.000000	72.188	179.6136
387.000000	72.153	179.5995
395.000000	72.113	179.6772
400.000000	72.078	179.8199
406.000000	72.023	-179.9811
412.000000	71.964	-179.7941
418.000000	71.904	-179.6223
425.000000	71.840	-179.4441
431.000000	71.790	-179.3399
437.000000	71.740	-179.2520
444.000000	71.679	-179.1453
450.000000	71.634	-179.0343
455.000000	71.604	-178.9020
462.000000	71.560	-178.6569
468.000000	71.516	-178.4059
475.000000	71.458	-178.0650
482.000000	71.400	-177.7124
487.000000	71.366	-177.4866
494.000000	71.328	-177.2027
500.000000	71.303	-176.9793
508.000000	71.273	-176.7174
515.000000	71.243	-176.5073
522.000000	71.210	-176.2845
530.000000	71.167	-175.9792
538.000000	71.120	-175.6138
545.000000	71.076	-175.2679
552.000000	71.030	-174.9204
560.000000	70.981	-174.5347
570.000000	70.929	-174.0821
580.000000	70.883	-173.7023
590.000000	70.848	-173.3178
600.000000	70.825	-172.8315
608.000000	70.807	-172.3954
615.000000	70.787	-172.0066
622.000000	70.767	-171.6241
630.000000	70.749	-171.1928
640.000000	70.741	-170.6572
650.000000	70.743	-170.1144
660.000000	70.746	-169.5872
670.000000	70.741	-169.1338
680.000000	70.734	-168.7320
690.000000	70.729	-168.3621
700.000000	70.731	-168.0903
710.000000	70.741	-167.8884
720.000000	70.754	-167.6319
730.000000	70.761	-167.3000
740.000000	70.758	-166.9590
750.000000	70.743	-166.6371
762.000000	70.709	-166.2158
775.000000	70.675	-165.6523
788.000000	70.651	-165.0008
800.000000	70.619	-164.3733
812.000000	70.582	-163.7827
825.000000	70.555	-163.2231
838.000000	70.545	-162.7039
850.000000	70.550	-162.2111
862.000000	70.569	-161.6958
875.000000	70.584	-161.1354
885.000000	70.586	-160.7300
900.000000	70.590	-160.1895
912.000000	70.598	-159.7823
925.000000	70.611	-159.2639
938.000000	70.626	-158.6414
950.000000	70.638	-158.0468
962.000000	70.652	-157.5024
975.000000	70.669	-156.9748
988.000000	70.685	-156.4541
1000.000000	70.701	-155.9506
1015.000000	70.719	-155.3043
1030.000000	70.735	-154.6570
1044.000000	70.743	-154.0411
1060.000000	70.745	-153.3124
1075.000000	70.749	-152.6340
1090.000000	70.762	-151.9685
1106.000000	70.791	-151.2541
1120.000000	70.827	-150.6097
1138.000000	70.872	-149.7499
1150.000000	70.895	-149.1644
1172.000000	70.925	-148.0554
1180.000000	70.935	-147.6341
1206.000000	70.990	-146.1985
1220.000000	71.043	-145.4073
1241.000000	71.150	-144.2866
1250.000000	71.198	-143.8568
1265.000000	71.272	-143.2010
1280.000000	71.339	-142.5761
1315.000000	71.499	-141.0964
1320.000000	71.523	-140.8805
1340.000000	71.627	-140.0190
1360.000000	71.738	-139.1792
1380.000000	71.854	-138.3699
1400.000000	71.968	-137.6031
1430.000000	72.134	-136.5428
1450.000000	72.243	-135.8516
1475.000000	72.386	-134.9393
1500.000000	72.539	-134.0159
1525.000000	72.706	-133.1680
1550.000000	72.881	-132.4151
1575.000000	73.060	-131.7225
1600.000000	73.239	-131.1008
1625.000000	73.417	-130.6036
1650.000000	73.585	-130.1862
1675.000000	73.749	-129.7479
1700.000000	73.916	-129.2890
1725.000000	74.087	-128.8830
1750.000000	74.261	-128.5801
1775.000000	74.443	-128.3532
1800.000000	74.626	-128.1134
1825.000000	74.796	-127.8085
1850.000000	74.956	-127.5319
1875.000000	75.116	-127.3813
1900.000000	75.276	-127.3350
1925.000000	75.430	-127.3137
1950.000000	75.580	-127.2756
1975.000000	75.729	-127.2679
2000.000000	75.878	-127.3517
2030.000000	76.051	-127.5140
2060.000000	76.223	-127.6582
2090.000000	76.395	-127.8484
2120.000000	76.549	-128.1371
2140.000000	76.636	-128.3209
2180.000000	76.792	-128.5273
2200.000000	76.875	-128.6034
2240.000000	77.052	-128.9154
2270.000000	77.179	-129.2416
2300.000000	77.309	-129.5162
2330.000000	77.452	-129.8088
2360.000000	77.593	-130.2432
2400.000000	77.739	-131.0045
2430.000000	77.806	-131.5489
2470.000000	77.859	-131.9982
2500.000000	77.901	-132.0888
2540.000000	77.987	-132.0629
2580.000000	78.109	-132.0831
2620.000000	78.247	-132.2168
2650.000000	78.353	-132.3898
2690.000000	78.487	-132.7567
2720.000000	78.574	-133.1178
2760.000000	78.675	-133.5809
2800.000000	78.786	-133.9868
2850.000000	78.945	-134.6692
2900.000000	79.077	-135.7430
2950.000000	79.124	-137.0318
3000.000000	79.067	-138.0193
3040.000000	78.979	-138.2439
3070.000000	78.914	-138.0053
3110.000000	78.870	-137.1561
3150.000000	78.925	-135.8590
3200.000000	79.175	-134.1562
3250.000000	79.579	-133.0294
3300.000000	80.055	-132.7663
3350.000000	80.564	-133.3662
3400.000000	81.073	-134.8586
3450.000000	81.542	-137.2246
3500.000000	81.949	-140.3360
3550.000000	82.278	-144.1374
3600.000000	82.500	-148.5412
3650.000000	82.601	-153.3215
3700.000000	82.584	-158.2950
3750.000000	82.447	-163.3076
3820.000000	82.059	-170.1014
3870.000000	81.649	-174.6305
3950.000000	80.781	178.9286
4000.000000	80.106	175.5379
4060.000000	79.145	172.4555
4120.000000	78.019	171.0084
4180.000000	76.766	171.7891
4250.000000	75.258	176.1617
4310.000000	74.136	-176.9768
4370.000000	73.515	-168.3428
4440.000000	73.641	-159.0327
4500.000000	74.193	-153.7701
4550.000000	74.689	-151.5854
4620.000000	75.209	-150.9353
4680.000000	75.445	-151.3853
4750.000000	75.512	-151.7944
4820.000000	75.451	-151.0775
4870.000000	75.436	-149.4903
4940.000000	75.686	-145.9482
5000.000000	76.276	-142.7868
5080.000000	77.425	-140.9044
5150.000000	78.417	-142.7158
5220.000000	79.157	-147.3827
5300.000000	79.609	-154.4999
5380.000000	79.711	-161.6132
5450.000000	79.643	-167.0845
5520.000000	79.531	-171.9748
5600.000000	79.405	-177.4823
5700.000000	79.203	174.7583
5800.000000	78.788	165.7295
5900.000000	78.000	156.3231
6000.000000	76.767	148.2085
6080.000000	75.466	143.8730
6150.000000	74.140	142.2552
6220.000000	72.706	142.7905
6300.000000	71.047	145.7463
6400.000000	69.100	152.3485
6500.000000	67.466	161.7975
6600.000000	66.430	173.1652
6700.000000	66.236	-175.8429
6800.000000	66.669	-167.7045
6900.000000	67.227	-163.4382
7000.000000	67.547	-162.1451
7100.000000	67.509	-161.7421
7200.000000	67.185	-160.2553
7300.000000	66.770	-156.7733
7400.000000	66.496	-151.5264
7500.000000	66.530	-145.4100
7620.000000	67.032	-138.4290
7750.000000	67.967	-133.1073
7880.000000	68.966	-131.3191
8000.000000	69.695	-132.7015
8120.000000	70.105	-136.0328
8250.000000	70.139	-140.1784
8380.000000	69.812	-143.1068
8500.000000	69.348	-143.8522
8620.000000	68.921	-142.9163
8750.000000	68.649	-141.0573
8850.000000	68.574	-139.7322
9000.000000	68.578	-138.3639
9120.000000	68.638	-137.6833
9250.000000	68.775	-137.3573
9380.000000	68.989	-137.7954
9500.000000	69.209	-139.1741
9620.000000	69.395	-141.4712
9750.000000	69.537	-144.7110
9880.000000	69.642	-148.5569
10000.000000	69.729	-152.7753
10150.000000	69.806	-159.3214
10300.000000	69.782	-167.4495
10440.000000	69.632	-176.4508
10600.000000	69.270	171.4574
10750.000000	68.686	158.2578
10900.000000	67.809	143.0552
11060.000000	66.496	123.9226
11200.000000	64.989	103.5078
11380.000000	62.571	69.6970
11500.000000	60.820	41.6821
11720.000000	58.966	-15.5201
11800.000000	59.272	-35.1971
12060.000000	62.349	-85.6833
12200.000000	64.031	-105.5250
12410.000000	65.897	-130.7130
12500.000000	66.434	-140.6151
12650.000000	67.003	-156.1569
12800.000000	67.221	-170.3376
13150.000000	66.808	161.6109
13200.000000	66.673	157.9904
13400.000000	65.933	144.1083
13600.000000	64.751	132.1845
13800.000000	62.998	125.2294
14000.000000	60.789	125.4751
14300.000000	57.737	135.2365
14500.000000	56.776	142.4497
14750.000000	56.887	147.6295
15000.000000	57.571	145.8332
15250.000000	58.019	137.1577
15500.000000	57.950	123.8271
15750.000000	57.281	108.1808
16000.000000	56.000	92.7974
16250.000000	54.272	79.4570
16500.000000	52.544	67.0759
16750.000000	51.367	51.8879
17000.000000	50.802	31.3071
17250.000000	50.522	6.5701
17500.000000	50.512	-19.3183
17750.000000	50.983	-45.2705
18000.000000	51.784	-72.3477
18250.000000	52.524	-101.0154
18500.000000	53.015	-130.4238
18750.000000	53.315	-159.8152
19000.000000	53.561	170.5013
19250.000000	53.796	139.7728
19500.000000	53.954	108.7660
19750.000000	53.984	81.4838
