* Measurement data measured by REW V5.20.13
* Source: EXCL: Headset (USB-C to 3.5mm Headphone Jack Adapter), MICROPHONE (Master Volume), 0, volume: 0.260
* Format: 256k Log Swept Sine, 1 sweep at -12.0 dBFS with no timing reference
* Dated: Dec 22, 2023 6:50:35 PM
* REW Settings:
*  C-weighting compensation: Off
*  Target level: 75.0 dB
* Note: 
* Measurement: Maxwell WP NS-O
* Smoothing: 1/12 octave
* Frequency Step: 1/48 octave
* Start Frequency: 20.000 Hz
*
* Freq(Hz)	SPL(dB)	Phase(degrees)
20.000000	72.144	-117.7198
20.299999	72.547	-121.1101
20.600000	72.902	-124.3930
20.900000	73.216	-127.3813
21.200001	73.517	-129.9393
21.400000	73.726	-131.3874
21.799999	74.197	-133.8505
22.000000	74.464	-134.9930
22.400000	75.040	-137.3851
22.700001	75.469	-139.4486
23.000000	75.863	-141.7297
23.299999	76.207	-144.0855
23.600000	76.506	-146.3099
24.000000	76.882	-148.7759
24.299999	77.199	-150.2292
24.700001	77.725	-151.9273
25.000000	78.197	-153.3920
25.400000	78.882	-156.0864
25.799999	79.537	-159.8986
26.200001	80.087	-164.6900
26.500000	80.412	-168.6703
26.900000	80.734	-174.0980
27.200001	80.911	-178.0554
27.600000	81.095	176.9680
28.000000	81.252	172.3345
28.500000	81.437	166.8932
29.000000	81.615	161.7311
29.500000	81.792	156.8679
30.000000	81.994	152.2919
30.400000	82.189	148.7029
30.700001	82.349	145.9355
31.100000	82.560	142.0294
31.500000	82.737	137.8569
32.000000	82.870	132.4810
32.500000	82.898	127.3309
33.000000	82.865	122.7270
33.500000	82.828	118.6322
34.000000	82.817	114.7169
34.500000	82.813	110.6865
35.000000	82.772	106.5183
35.500000	82.672	102.4269
36.000000	82.528	98.6487
36.500000	82.372	95.2498
37.000000	82.232	92.1154
37.500000	82.109	89.0958
38.200001	81.936	84.9811
38.700001	81.797	82.2053
39.500000	81.551	78.2382
40.000000	81.393	76.0671
40.599998	81.208	73.7114
41.200001	81.026	71.5510
41.799999	80.843	69.5262
42.500000	80.626	67.2921
43.099998	80.439	65.4526
43.700001	80.257	63.6420
44.400002	80.057	61.5333
45.000000	79.904	59.7114
45.500000	79.796	58.1544
46.200001	79.667	55.9047
46.799999	79.568	54.0118
47.500000	79.475	52.0326
48.200001	79.426	50.3667
48.700001	79.423	49.3579
49.400002	79.480	48.1368
50.000000	79.592	46.9892
50.799999	79.742	44.6091
51.500000	79.703	41.8212
52.200001	79.424	39.5338
53.000000	78.950	38.6082
53.799999	78.548	38.8183
54.500000	78.299	38.9397
55.200001	78.096	38.7409
56.000000	77.890	38.1925
57.000000	77.651	37.0624
58.000000	77.397	35.8495
59.000000	77.175	35.0449
60.000000	77.040	34.3402
60.799999	76.951	33.5679
61.500000	76.848	32.8562
62.200001	76.724	32.2586
63.000000	76.577	31.7159
64.000000	76.408	31.0822
65.000000	76.258	30.3688
66.000000	76.124	29.5878
67.000000	76.009	28.8501
68.000000	75.921	28.2037
69.000000	75.848	27.6434
70.000000	75.770	27.2476
71.000000	75.689	27.0807
72.000000	75.614	27.0768
73.000000	75.553	27.1170
74.000000	75.508	27.0840
75.000000	75.475	26.9045
76.199997	75.438	26.5238
77.500000	75.398	26.0398
78.800003	75.363	25.6007
80.000000	75.344	25.2325
81.199997	75.338	24.8235
82.500000	75.340	24.3018
83.800003	75.346	23.7093
85.000000	75.352	23.1111
86.199997	75.352	22.4795
87.500000	75.344	21.7577
88.500000	75.329	21.1708
90.000000	75.294	20.2439
91.199997	75.264	19.4670
92.500000	75.234	18.5859
93.800003	75.207	17.6649
95.000000	75.174	16.7980
96.199997	75.123	15.9827
97.500000	75.049	15.2513
98.800003	74.967	14.6593
100.000000	74.891	14.1538
101.500000	74.788	13.4974
103.000000	74.672	12.8086
104.400002	74.550	12.1949
106.000000	74.404	11.5947
107.500000	74.269	11.1323
109.000000	74.129	10.7625
110.599998	73.970	10.4938
112.000000	73.829	10.3796
113.800003	73.664	10.3765
115.000000	73.577	10.4529
117.199997	73.482	10.7093
118.000000	73.462	10.8163
120.599998	73.362	11.3026
122.000000	73.273	11.8091
124.099998	73.143	12.7086
125.000000	73.097	13.0299
126.500000	73.034	13.4188
128.000000	72.983	13.6697
131.500000	72.894	14.1100
132.000000	72.882	14.1761
134.000000	72.838	14.4598
136.000000	72.809	14.7430
138.000000	72.797	15.0182
140.000000	72.795	15.3177
143.000000	72.787	15.7704
145.000000	72.770	16.0312
147.500000	72.746	16.3226
150.000000	72.725	16.6274
152.500000	72.708	16.9666
155.000000	72.698	17.3048
157.500000	72.698	17.5887
160.000000	72.704	17.8170
162.500000	72.708	17.9860
165.000000	72.709	18.0917
167.500000	72.706	18.1463
170.000000	72.696	18.2242
172.500000	72.676	18.4150
175.000000	72.648	18.7334
177.500000	72.617	19.1268
180.000000	72.589	19.5461
182.500000	72.569	19.9723
185.000000	72.554	20.4267
187.500000	72.544	20.9335
190.000000	72.541	21.4740
192.500000	72.542	22.0280
195.000000	72.544	22.6152
197.500000	72.551	23.2529
200.000000	72.566	23.9316
203.000000	72.594	24.7863
206.000000	72.633	25.6772
209.000000	72.685	26.5891
212.000000	72.751	27.5262
214.000000	72.806	28.1728
218.000000	72.945	29.5009
220.000000	73.031	30.1556
224.000000	73.230	31.3614
227.000000	73.400	32.1290
230.000000	73.578	32.7779
233.000000	73.761	33.3228
236.000000	73.948	33.7679
240.000000	74.203	34.2145
243.000000	74.398	34.4536
247.000000	74.661	34.6450
250.000000	74.859	34.6834
254.000000	75.121	34.5984
258.000000	75.379	34.3737
262.000000	75.629	34.0157
265.000000	75.813	33.6615
269.000000	76.050	33.0844
272.000000	76.220	32.5845
276.000000	76.437	31.8461
280.000000	76.642	31.0361
285.000000	76.885	29.9133
290.000000	77.110	28.6494
295.000000	77.313	27.2607
300.000000	77.494	25.8021
304.000000	77.620	24.6134
307.000000	77.704	23.7090
311.000000	77.804	22.4833
315.000000	77.891	21.2401
320.000000	77.981	19.6718
325.000000	78.052	18.0936
330.000000	78.102	16.5183
335.000000	78.129	14.9678
340.000000	78.135	13.4601
345.000000	78.120	12.0118
350.000000	78.088	10.6492
355.000000	78.040	9.4121
360.000000	77.982	8.3307
365.000000	77.922	7.4036
370.000000	77.870	6.5969
375.000000	77.835	5.8435
382.000000	77.810	4.7200
387.000000	77.797	3.7937
395.000000	77.751	2.1112
400.000000	77.699	0.9953
406.000000	77.610	-0.3477
412.000000	77.492	-1.6566
418.000000	77.347	-2.8895
425.000000	77.141	-4.1539
431.000000	76.935	-5.0301
437.000000	76.705	-5.6670
444.000000	76.418	-6.0492
450.000000	76.170	-6.0436
455.000000	75.972	-5.8107
462.000000	75.721	-5.1826
468.000000	75.540	-4.4303
475.000000	75.371	-3.3977
482.000000	75.246	-2.2885
487.000000	75.182	-1.4854
494.000000	75.123	-0.3735
500.000000	75.100	0.5515
508.000000	75.103	1.7205
515.000000	75.133	2.6603
522.000000	75.183	3.4991
530.000000	75.261	4.3156
538.000000	75.354	4.9673
545.000000	75.444	5.3950
552.000000	75.539	5.6933
560.000000	75.649	5.8911
570.000000	75.782	5.9495
580.000000	75.905	5.8212
590.000000	76.013	5.5326
600.000000	76.104	5.1161
608.000000	76.164	4.7159
615.000000	76.206	4.3289
622.000000	76.239	3.9136
630.000000	76.262	3.4146
640.000000	76.272	2.7790
650.000000	76.257	2.1635
660.000000	76.217	1.6002
670.000000	76.152	1.1376
680.000000	76.068	0.8538
690.000000	75.976	0.8199
700.000000	75.896	1.0485
710.000000	75.846	1.4731
720.000000	75.836	1.9721
730.000000	75.869	2.4031
740.000000	75.934	2.6414
750.000000	76.011	2.6108
762.000000	76.092	2.2112
775.000000	76.131	1.4436
788.000000	76.100	0.5428
800.000000	76.006	-0.1882
812.000000	75.863	-0.6422
825.000000	75.680	-0.6928
838.000000	75.500	-0.2535
850.000000	75.360	0.5226
862.000000	75.263	1.5352
875.000000	75.212	2.7563
885.000000	75.209	3.7108
900.000000	75.257	5.1053
912.000000	75.341	6.1683
925.000000	75.494	7.1902
938.000000	75.719	7.8495
950.000000	75.969	7.8243
962.000000	76.200	6.9630
975.000000	76.345	5.1653
988.000000	76.318	3.0093
1000.000000	76.142	1.3624
1015.000000	75.795	0.4241
1030.000000	75.426	0.8543
1044.000000	75.154	2.1697
1060.000000	74.980	4.1906
1075.000000	74.944	6.1214
1090.000000	74.998	7.8101
1106.000000	75.111	9.2240
1120.000000	75.230	10.1235
1138.000000	75.380	10.8865
1150.000000	75.468	11.2124
1172.000000	75.599	11.5695
1180.000000	75.635	11.6483
1206.000000	75.710	11.8422
1220.000000	75.724	11.9879
1241.000000	75.724	12.3788
1250.000000	75.721	12.6266
1265.000000	75.719	13.1515
1280.000000	75.731	13.7983
1315.000000	75.857	15.4121
1320.000000	75.887	15.6046
1340.000000	76.018	16.1644
1360.000000	76.147	16.3411
1380.000000	76.241	16.1766
1400.000000	76.274	15.8156
1430.000000	76.186	15.4236
1450.000000	76.054	15.6614
1475.000000	75.880	16.7434
1500.000000	75.762	18.4619
1525.000000	75.713	20.4638
1550.000000	75.716	22.6238
1575.000000	75.772	24.9485
1600.000000	75.899	27.3951
1625.000000	76.110	29.8211
1650.000000	76.399	32.0362
1675.000000	76.749	33.8868
1700.000000	77.138	35.2983
1725.000000	77.551	36.2271
1750.000000	77.970	36.5937
1775.000000	78.364	36.3122
1800.000000	78.689	35.4026
1825.000000	78.909	34.0551
1850.000000	79.001	32.6016
1875.000000	78.965	31.4545
1900.000000	78.824	31.0277
1925.000000	78.631	31.6406
1950.000000	78.466	33.4206
1975.000000	78.427	36.1944
2000.000000	78.590	39.4214
2030.000000	79.034	42.8854
2060.000000	79.615	45.1803
2090.000000	80.205	46.2758
2120.000000	80.747	46.4917
2140.000000	81.071	46.3015
2180.000000	81.625	45.4295
2200.000000	81.853	44.8704
2240.000000	82.218	43.8243
2270.000000	82.436	43.3455
2300.000000	82.647	43.2719
2330.000000	82.891	43.5643
2360.000000	83.194	44.0190
2400.000000	83.680	44.4414
2430.000000	84.069	44.4725
2470.000000	84.603	44.2648
2500.000000	85.029	43.9672
2540.000000	85.631	43.1364
2580.000000	86.215	41.6361
2620.000000	86.747	39.6788
2650.000000	87.121	38.0822
2690.000000	87.616	35.8243
2720.000000	87.991	33.9288
2760.000000	88.481	30.9008
2800.000000	88.911	27.1514
2850.000000	89.281	21.6096
2900.000000	89.403	15.7460
2950.000000	89.258	10.6666
3000.000000	88.965	7.6328
3040.000000	88.821	6.7007
3070.000000	88.844	6.3038
3110.000000	89.027	5.3336
3150.000000	89.269	3.3628
3200.000000	89.495	-0.3978
3250.000000	89.547	-4.9110
3300.000000	89.400	-9.3942
3350.000000	89.070	-13.0607
3400.000000	88.646	-15.2970
3450.000000	88.279	-16.2277
3500.000000	88.064	-16.7336
3550.000000	87.956	-17.5485
3600.000000	87.865	-18.7546
3650.000000	87.745	-20.0619
3700.000000	87.604	-21.1985
3750.000000	87.479	-22.1242
3820.000000	87.368	-23.4102
3870.000000	87.323	-24.5859
3950.000000	87.258	-27.2163
4000.000000	87.176	-29.4907
4060.000000	86.940	-32.7195
4120.000000	86.457	-35.4838
4180.000000	85.768	-36.3412
4250.000000	85.008	-34.5898
4310.000000	84.639	-32.2394
4370.000000	84.493	-30.5452
4440.000000	84.352	-29.5356
4500.000000	84.153	-28.4160
4550.000000	84.011	-26.6964
4620.000000	84.045	-23.6907
4680.000000	84.283	-21.8110
4750.000000	84.612	-20.9620
4820.000000	84.913	-20.8644
4870.000000	85.142	-20.9861
4940.000000	85.512	-21.6888
5000.000000	85.831	-23.0930
5080.000000	86.172	-26.1013
5150.000000	86.355	-29.4508
5220.000000	86.428	-33.1758
5300.000000	86.379	-37.6740
5380.000000	86.193	-42.1918
5450.000000	85.930	-46.0763
5520.000000	85.567	-49.8312
5600.000000	85.012	-53.6931
5700.000000	84.105	-57.0931
5800.000000	83.091	-58.2189
5900.000000	82.202	-57.9788
6000.000000	81.471	-57.7195
6080.000000	80.904	-57.5780
6150.000000	80.389	-57.2448
6220.000000	79.861	-56.6028
6300.000000	79.247	-55.3778
6400.000000	78.500	-52.7510
6500.000000	77.930	-49.2056
6600.000000	77.608	-46.1634
6700.000000	77.373	-44.1536
6800.000000	77.129	-42.6191
6900.000000	76.895	-41.3681
7000.000000	76.668	-40.5715
7100.000000	76.414	-40.2926
7200.000000	76.091	-40.4646
7300.000000	75.654	-40.8297
7400.000000	75.059	-40.8418
7500.000000	74.288	-39.5620
7620.000000	73.285	-35.4339
7750.000000	72.470	-28.9574
7880.000000	72.055	-22.5629
8000.000000	71.904	-17.2424
8120.000000	71.913	-12.4421
8250.000000	72.086	-7.8239
8380.000000	72.474	-3.8392
8500.000000	73.088	-1.1460
8620.000000	73.953	-0.2885
8750.000000	75.002	-3.2238
8850.000000	75.645	-9.2385
9000.000000	75.918	-23.4987
9120.000000	75.382	-36.2537
9250.000000	74.150	-48.2230
9380.000000	72.469	-57.5126
9500.000000	70.708	-64.4374
9620.000000	68.918	-71.0210
9750.000000	67.194	-79.5145
9880.000000	66.066	-91.0993
10000.000000	65.894	-104.5643
10150.000000	67.091	-123.3430
10300.000000	69.321	-143.1152
10440.000000	71.593	-161.7610
10600.000000	73.920	177.2522
10750.000000	75.488	157.0167
10900.000000	76.220	137.0110
11060.000000	76.148	119.8667
11200.000000	75.723	110.6185
11380.000000	75.331	105.2804
11500.000000	75.394	103.9043
11720.000000	76.143	101.7991
11800.000000	76.526	100.5215
12060.000000	77.818	93.8154
12200.000000	78.513	88.8424
12410.000000	79.545	79.0901
12500.000000	79.941	73.7170
12650.000000	80.438	62.8743
12800.000000	80.620	49.9558
13150.000000	79.453	18.4885
13200.000000	79.113	14.5651
13400.000000	77.443	1.1606
13600.000000	75.492	-9.4263
13800.000000	73.543	-19.6344
14000.000000	71.860	-32.7913
14300.000000	70.427	-65.2035
14500.000000	70.617	-97.1396
14750.000000	72.067	-145.0402
15000.000000	73.780	165.5878
15250.000000	74.878	121.3326
15500.000000	75.147	85.2324
15750.000000	74.725	57.6729
16000.000000	73.898	37.5488
16250.000000	73.035	22.9056
16500.000000	72.540	10.8910
16750.000000	72.573	-2.1895
17000.000000	72.811	-19.2833
17250.000000	72.776	-40.6436
17500.000000	72.200	-63.8982
17750.000000	71.057	-85.8365
18000.000000	69.518	-104.1257
18250.000000	68.065	-118.7396
18500.000000	67.505	-133.0845
18750.000000	68.079	-152.8633
19000.000000	69.034	178.0435
19250.000000	69.737	140.3655
19500.000000	70.033	98.8274
19750.000000	70.022	61.3248
