* Measurement data measured by REW V5.20.13
* Source: EXCL: Headset (USB-C to 3.5mm Headphone Jack Adapter), MICROPHONE (Master Volume), 0, volume: 0.260
* Format: 256k Log Swept Sine, 1 sweep at -12.0 dBFS with no timing reference
* Dated: Dec 22, 2023 6:49:03 PM
* REW Settings:
*  C-weighting compensation: Off
*  Target level: 75.0 dB
* Note: 
* Measurement: Maxwell SP NS-O
* Smoothing: 1/12 octave
* Frequency Step: 1/48 octave
* Start Frequency: 20.000 Hz
*
* Freq(Hz)	SPL(dB)	Phase(degrees)
20.000000	70.943	-69.9550
20.299999	71.395	-73.0858
20.600000	71.828	-75.8629
20.900000	72.282	-78.3263
21.200001	72.779	-80.7030
21.400000	73.128	-82.4075
21.799999	73.810	-86.3969
22.000000	74.113	-88.6971
22.400000	74.608	-93.5970
22.700001	74.893	-97.0418
23.000000	75.169	-99.9153
23.299999	75.518	-102.1371
23.600000	76.012	-103.9744
24.000000	76.902	-106.8222
24.299999	77.639	-109.9928
24.700001	78.524	-116.0884
25.000000	79.016	-121.7556
25.400000	79.389	-129.7159
25.799999	79.481	-136.5870
26.200001	79.460	-141.2014
26.500000	79.516	-143.1169
26.900000	79.838	-144.4905
27.200001	80.266	-145.4737
27.600000	80.936	-147.7400
28.000000	81.546	-151.3641
28.500000	82.082	-156.9539
29.000000	82.414	-162.2073
29.500000	82.705	-166.5244
30.000000	83.063	-170.5433
30.400000	83.374	-174.1545
30.700001	83.583	-177.2366
31.100000	83.789	178.2607
31.500000	83.900	173.6247
32.000000	83.941	168.1215
32.500000	83.946	163.1445
33.000000	83.974	158.4940
33.500000	84.034	153.8586
34.000000	84.091	149.1049
34.500000	84.114	144.3412
35.000000	84.095	139.7891
35.500000	84.047	135.6111
36.000000	83.990	131.8431
36.500000	83.940	128.4196
37.000000	83.903	125.2227
37.500000	83.877	122.1252
38.200001	83.840	117.7629
38.700001	83.794	114.5636
39.500000	83.658	109.3706
40.000000	83.529	106.1878
40.599998	83.337	102.5547
41.200001	83.121	99.2128
41.799999	82.903	96.2045
42.500000	82.672	93.0672
43.099998	82.504	90.5946
43.700001	82.356	88.2490
44.400002	82.197	85.6393
45.000000	82.062	83.4924
45.500000	81.945	81.7585
46.200001	81.767	79.4199
46.799999	81.605	77.4884
47.500000	81.409	75.2730
48.200001	81.211	73.0526
48.700001	81.074	71.4169
49.400002	80.886	68.9414
50.000000	80.697	66.6858
50.799999	80.373	64.0544
51.500000	80.083	62.6282
52.200001	79.899	61.7799
53.000000	79.828	60.6499
53.799999	79.783	59.0792
54.500000	79.706	57.6843
55.200001	79.597	56.5026
56.000000	79.448	55.4734
57.000000	79.251	54.6780
58.000000	79.092	54.2590
59.000000	78.995	53.6818
60.000000	78.883	52.6250
60.799999	78.732	51.7998
61.500000	78.577	51.3683
62.200001	78.433	51.1924
63.000000	78.298	51.1632
64.000000	78.169	51.2525
65.000000	78.083	51.3759
66.000000	78.036	51.4040
67.000000	78.016	51.2765
68.000000	78.017	50.9898
69.000000	78.033	50.5697
70.000000	78.063	50.0707
71.000000	78.103	49.5652
72.000000	78.158	49.1331
73.000000	78.237	48.7310
74.000000	78.327	48.2155
75.000000	78.404	47.5590
76.199997	78.465	46.6196
77.500000	78.483	45.3896
78.800003	78.444	44.0482
80.000000	78.383	42.8997
81.199997	78.339	41.8816
82.500000	78.336	40.7993
83.800003	78.359	39.6957
85.000000	78.386	38.7346
86.199997	78.410	37.8414
87.500000	78.423	36.9156
88.500000	78.423	36.2020
90.000000	78.411	35.0472
91.199997	78.393	34.0293
92.500000	78.366	32.8910
93.800003	78.336	31.7803
95.000000	78.302	30.8127
96.199997	78.258	29.9166
97.500000	78.196	29.0256
98.800003	78.121	28.2020
100.000000	78.044	27.4868
101.500000	77.949	26.6437
103.000000	77.866	25.8416
104.400002	77.797	25.1068
106.000000	77.714	24.2983
107.500000	77.625	23.5996
109.000000	77.524	22.9792
110.599998	77.408	22.4451
112.000000	77.304	22.1259
113.800003	77.164	21.9731
115.000000	77.065	22.0366
117.199997	76.880	22.4282
118.000000	76.822	22.6310
120.599998	76.739	23.1868
122.000000	76.769	23.2123
124.099998	76.854	22.9467
125.000000	76.893	22.7961
126.500000	76.948	22.5492
128.000000	76.986	22.3010
131.500000	77.023	21.5951
132.000000	77.026	21.4843
134.000000	77.037	21.0598
136.000000	77.049	20.6865
138.000000	77.055	20.3345
140.000000	77.052	19.9477
143.000000	77.044	19.2346
145.000000	77.046	18.7319
147.500000	77.059	18.1684
150.000000	77.068	17.6565
152.500000	77.064	17.1473
155.000000	77.044	16.5658
157.500000	77.000	15.9666
160.000000	76.934	15.4649
162.500000	76.859	15.0424
165.000000	76.788	14.6553
167.500000	76.730	14.3148
170.000000	76.678	14.0471
172.500000	76.620	13.8481
175.000000	76.558	13.6921
177.500000	76.498	13.5811
180.000000	76.438	13.5552
182.500000	76.377	13.6345
185.000000	76.317	13.7925
187.500000	76.263	14.0105
190.000000	76.215	14.3119
192.500000	76.178	14.7079
195.000000	76.154	15.1686
197.500000	76.146	15.6569
200.000000	76.158	16.1460
203.000000	76.195	16.7051
206.000000	76.254	17.2090
209.000000	76.327	17.6474
212.000000	76.411	18.0094
214.000000	76.470	18.2002
218.000000	76.589	18.4617
220.000000	76.649	18.5425
224.000000	76.768	18.6304
227.000000	76.857	18.6506
230.000000	76.947	18.6467
233.000000	77.036	18.6236
236.000000	77.128	18.5786
240.000000	77.256	18.4821
243.000000	77.357	18.3826
247.000000	77.497	18.2050
250.000000	77.606	18.0310
254.000000	77.755	17.7324
258.000000	77.906	17.3375
262.000000	78.059	16.8260
265.000000	78.172	16.3611
269.000000	78.320	15.6333
272.000000	78.425	15.0116
276.000000	78.555	14.0969
280.000000	78.674	13.1019
285.000000	78.803	11.7656
290.000000	78.913	10.3536
295.000000	79.003	8.8947
300.000000	79.069	7.4184
304.000000	79.104	6.2411
307.000000	79.121	5.3593
311.000000	79.135	4.1826
315.000000	79.139	3.0105
320.000000	79.128	1.5605
325.000000	79.101	0.1340
330.000000	79.057	-1.2599
335.000000	78.996	-2.6069
340.000000	78.918	-3.8931
345.000000	78.822	-5.0996
350.000000	78.711	-6.1933
355.000000	78.589	-7.1335
360.000000	78.465	-7.8942
365.000000	78.350	-8.4923
370.000000	78.255	-9.0033
375.000000	78.181	-9.5350
382.000000	78.094	-10.4630
387.000000	78.025	-11.2612
395.000000	77.880	-12.6287
400.000000	77.769	-13.4703
406.000000	77.618	-14.4380
412.000000	77.447	-15.3539
418.000000	77.256	-16.2073
425.000000	77.006	-17.0837
431.000000	76.768	-17.6757
437.000000	76.512	-18.0726
444.000000	76.195	-18.2485
450.000000	75.914	-18.1194
455.000000	75.679	-17.7962
462.000000	75.362	-17.0115
468.000000	75.112	-16.0591
475.000000	74.859	-14.6934
482.000000	74.655	-13.1416
487.000000	74.540	-11.9681
494.000000	74.422	-10.2938
500.000000	74.355	-8.8663
508.000000	74.312	-7.0157
515.000000	74.313	-5.4780
522.000000	74.344	-4.0458
530.000000	74.409	-2.5677
538.000000	74.500	-1.2849
545.000000	74.596	-0.3377
552.000000	74.702	0.4442
560.000000	74.829	1.1489
570.000000	74.986	1.7776
580.000000	75.134	2.1611
590.000000	75.268	2.3372
600.000000	75.386	2.3369
608.000000	75.466	2.2305
615.000000	75.525	2.0767
622.000000	75.571	1.8822
630.000000	75.609	1.6279
640.000000	75.635	1.2866
650.000000	75.634	0.9564
660.000000	75.609	0.6876
670.000000	75.558	0.5322
680.000000	75.488	0.5482
690.000000	75.408	0.7964
700.000000	75.335	1.3033
710.000000	75.290	2.0269
720.000000	75.286	2.8640
730.000000	75.328	3.6781
740.000000	75.408	4.3326
750.000000	75.509	4.7301
762.000000	75.625	4.8355
775.000000	75.712	4.5914
788.000000	75.740	4.1788
800.000000	75.714	3.8574
812.000000	75.650	3.7501
825.000000	75.559	3.9639
838.000000	75.469	4.5408
850.000000	75.408	5.3665
862.000000	75.384	6.3938
875.000000	75.412	7.5942
885.000000	75.470	8.4852
900.000000	75.603	9.6655
912.000000	75.743	10.4497
925.000000	75.928	11.1125
938.000000	76.156	11.4573
950.000000	76.392	11.2709
962.000000	76.610	10.3982
975.000000	76.755	8.7109
988.000000	76.745	6.7008
1000.000000	76.595	5.1508
1015.000000	76.282	4.2581
1030.000000	75.947	4.6819
1044.000000	75.708	5.9667
1060.000000	75.572	7.9196
1075.000000	75.567	9.7535
1090.000000	75.644	11.3203
1106.000000	75.772	12.5984
1120.000000	75.898	13.3997
1138.000000	76.054	14.0920
1150.000000	76.147	14.4048
1172.000000	76.293	14.7725
1180.000000	76.337	14.8584
1206.000000	76.441	15.0721
1220.000000	76.473	15.2183
1241.000000	76.497	15.5857
1250.000000	76.502	15.8185
1265.000000	76.513	16.3247
1280.000000	76.536	16.9734
1315.000000	76.695	18.6918
1320.000000	76.731	18.9075
1340.000000	76.891	19.5718
1360.000000	77.058	19.8652
1380.000000	77.201	19.8130
1400.000000	77.298	19.5193
1430.000000	77.331	18.9874
1450.000000	77.276	18.8973
1475.000000	77.165	19.4215
1500.000000	77.079	20.6569
1525.000000	77.065	22.2886
1550.000000	77.119	24.0432
1575.000000	77.232	25.8210
1600.000000	77.403	27.5537
1625.000000	77.631	29.1187
1650.000000	77.905	30.3767
1675.000000	78.200	31.2419
1700.000000	78.495	31.7115
1725.000000	78.775	31.8273
1750.000000	79.031	31.6095
1775.000000	79.247	31.0507
1800.000000	79.399	30.1936
1825.000000	79.462	29.2083
1850.000000	79.423	28.3890
1875.000000	79.293	28.0764
1900.000000	79.105	28.5499
1925.000000	78.913	29.9355
1950.000000	78.779	32.1847
1975.000000	78.759	35.1150
2000.000000	78.897	38.4158
2030.000000	79.287	42.2200
2060.000000	79.843	45.1390
2090.000000	80.446	46.9023
2120.000000	81.020	47.7003
2140.000000	81.372	47.8464
2180.000000	81.992	47.5400
2200.000000	82.258	47.2043
2240.000000	82.704	46.4560
2270.000000	82.979	46.0765
2300.000000	83.240	46.0364
2330.000000	83.530	46.3232
2360.000000	83.876	46.7393
2400.000000	84.409	47.0688
2430.000000	84.828	46.9915
2470.000000	85.383	46.5886
2500.000000	85.814	46.1972
2540.000000	86.435	45.3979
2580.000000	87.065	43.8691
2620.000000	87.633	41.6230
2650.000000	88.010	39.7039
2690.000000	88.478	37.0304
2720.000000	88.819	34.8973
2760.000000	89.252	31.6712
2800.000000	89.621	27.8373
2850.000000	89.910	22.3282
2900.000000	89.937	16.7178
2950.000000	89.694	12.2511
3000.000000	89.326	10.1824
3040.000000	89.158	10.2113
3070.000000	89.194	10.5762
3110.000000	89.426	10.5674
3150.000000	89.739	9.4596
3200.000000	90.064	6.7233
3250.000000	90.245	3.2822
3300.000000	90.287	-0.1735
3350.000000	90.221	-3.1766
3400.000000	90.112	-5.4131
3450.000000	90.050	-6.9742
3500.000000	90.087	-8.3778
3550.000000	90.194	-10.1620
3600.000000	90.302	-12.4973
3650.000000	90.367	-15.2102
3700.000000	90.383	-18.0546
3750.000000	90.371	-20.9485
3820.000000	90.319	-25.2937
3870.000000	90.232	-28.7085
3950.000000	89.966	-34.6094
4000.000000	89.699	-38.5667
4060.000000	89.206	-43.3527
4120.000000	88.438	-47.0577
4180.000000	87.439	-48.1168
4250.000000	86.348	-46.0116
4310.000000	85.771	-43.5050
4370.000000	85.451	-41.9666
4440.000000	85.094	-41.1967
4500.000000	84.682	-40.0879
4550.000000	84.341	-38.2050
4620.000000	84.082	-34.8064
4680.000000	84.075	-32.4418
4750.000000	84.139	-30.7837
4820.000000	84.181	-29.5981
4870.000000	84.229	-28.7483
4940.000000	84.365	-27.8264
5000.000000	84.513	-27.6027
5080.000000	84.670	-28.0758
5150.000000	84.741	-28.8351
5220.000000	84.769	-29.6621
5300.000000	84.766	-30.5967
5380.000000	84.754	-31.4293
5450.000000	84.769	-32.2052
5520.000000	84.802	-33.3021
5600.000000	84.811	-35.0665
5700.000000	84.718	-37.6564
5800.000000	84.540	-40.1918
5900.000000	84.331	-42.8655
6000.000000	84.046	-45.9376
6080.000000	83.715	-48.4292
6150.000000	83.350	-50.3584
6220.000000	82.931	-51.9208
6300.000000	82.409	-53.1410
6400.000000	81.761	-53.7692
6500.000000	81.231	-54.1064
6600.000000	80.777	-55.2549
6700.000000	80.221	-56.9557
6800.000000	79.511	-58.2430
6900.000000	78.702	-58.7108
7000.000000	77.846	-58.2906
7100.000000	76.998	-57.0992
7200.000000	76.189	-55.4838
7300.000000	75.396	-53.5473
7400.000000	74.584	-51.0144
7500.000000	73.755	-47.4283
7620.000000	72.862	-41.4662
7750.000000	72.253	-34.2234
7880.000000	72.021	-27.5865
8000.000000	72.065	-22.2666
8120.000000	72.335	-18.0696
8250.000000	72.786	-15.6591
8380.000000	73.190	-15.9011
8500.000000	73.371	-17.8870
8620.000000	73.339	-20.4649
8750.000000	73.173	-23.0972
8850.000000	73.036	-25.1428
9000.000000	72.859	-28.8295
9120.000000	72.747	-32.6002
9250.000000	72.678	-37.8765
9380.000000	72.655	-44.8807
9500.000000	72.650	-53.0601
9620.000000	72.650	-62.9045
9750.000000	72.653	-75.1912
9880.000000	72.709	-88.6407
10000.000000	72.884	-101.7701
10150.000000	73.289	-119.1293
10300.000000	73.759	-137.2031
10440.000000	74.131	-153.5205
10600.000000	74.525	-170.0697
10750.000000	74.926	176.2317
10900.000000	75.249	163.6084
11060.000000	75.418	151.5475
11200.000000	75.438	142.4111
11380.000000	75.342	132.3538
11500.000000	75.192	126.3910
11720.000000	74.577	117.6989
11800.000000	74.228	115.9609
12060.000000	73.232	118.5455
12200.000000	73.493	123.7481
12410.000000	75.215	129.9434
12500.000000	76.163	130.4410
12650.000000	77.674	127.4279
12800.000000	78.899	119.7393
13150.000000	80.194	90.0916
13200.000000	80.202	85.3119
13400.000000	79.881	66.3507
13600.000000	79.124	48.0039
13800.000000	78.070	29.6727
14000.000000	76.849	9.9037
14300.000000	75.131	-27.0051
14500.000000	74.547	-59.1830
14750.000000	74.868	-108.0876
15000.000000	75.701	-161.3679
15250.000000	76.088	149.5681
15500.000000	75.702	110.8264
15750.000000	74.706	83.8287
16000.000000	73.546	66.2928
16250.000000	72.741	53.8817
16500.000000	72.548	42.4578
16750.000000	72.882	29.0470
17000.000000	73.424	11.1533
17250.000000	73.712	-12.4039
17500.000000	73.385	-39.9467
17750.000000	72.321	-67.8362
18000.000000	70.609	-93.1321
18250.000000	68.463	-115.0486
18500.000000	66.139	-133.8746
18750.000000	63.980	-149.2595
19000.000000	62.786	-161.4751
19250.000000	63.366	-175.3784
19500.000000	64.856	162.4275
19750.000000	66.079	134.7512
