* Measurement data measured by REW V5.20.13
* Source: EXCL: Headset (USB-C to 3.5mm Headphone Jack Adapter), MICROPHONE (Master Volume), 0, volume: 0.260
* Format: 256k Log Swept Sine, 1 sweep at -12.0 dBFS with no timing reference
* Dated: Nov 18, 2023 10:49:14 AM
* REW Settings:
*  C-weighting compensation: Off
*  Target level: 75.0 dB
* Note: 
* Measurement: Parts Express Headphone
* Smoothing: 1/12 octave
* Frequency Step: 1/48 octave
* Start Frequency: 20.000 Hz
*
* Freq(Hz)	SPL(dB)	Phase(degrees)
20.000000	22.336	-174.3184
20.299999	23.799	-160.1514
20.600000	26.077	-145.4210
20.900000	28.600	-133.3193
21.200001	30.886	-126.2808
21.400000	32.184	-124.7750
21.799999	34.188	-127.9677
22.000000	34.887	-131.7927
22.400000	35.681	-141.9923
22.700001	35.749	-150.1207
23.000000	35.367	-157.0026
23.299999	34.546	-160.8662
23.600000	33.340	-160.0735
24.000000	31.451	-150.9801
24.299999	30.359	-140.5460
24.700001	30.011	-127.9286
25.000000	30.293	-122.7135
25.400000	30.560	-121.8077
25.799999	30.248	-123.8654
26.200001	29.411	-124.4537
26.500000	28.680	-123.0493
26.900000	28.063	-120.5713
27.200001	28.051	-120.2782
27.600000	28.380	-124.1022
28.000000	28.655	-132.3661
28.500000	28.539	-144.2030
29.000000	28.199	-150.3884
29.500000	28.682	-147.9105
30.000000	30.492	-141.4802
30.400000	32.241	-138.2388
30.700001	33.405	-138.1774
31.100000	34.627	-140.8734
31.500000	35.466	-145.2548
32.000000	36.028	-150.9166
32.500000	36.093	-155.1415
33.000000	35.710	-156.0048
33.500000	35.107	-151.1637
34.000000	35.035	-140.1322
34.500000	36.156	-126.9162
35.000000	37.897	-118.2653
35.500000	39.401	-117.8740
36.000000	40.331	-124.3926
36.500000	40.651	-134.1685
37.000000	40.436	-143.7742
37.500000	39.826	-150.9256
38.200001	38.751	-155.6072
38.700001	38.205	-156.1903
39.500000	38.054	-155.7864
40.000000	38.290	-155.6235
40.599998	38.742	-155.6629
41.200001	39.254	-156.0767
41.799999	39.722	-156.7719
42.500000	40.202	-157.5023
43.099998	40.600	-158.2744
43.700001	40.939	-159.7950
44.400002	41.184	-162.4940
45.000000	41.336	-165.3616
45.500000	41.472	-168.5942
46.200001	41.549	-175.1072
46.799999	41.294	178.7411
47.500000	40.596	175.0287
48.200001	40.041	177.6044
48.700001	40.212	-178.2523
49.400002	41.184	-173.7295
50.000000	42.143	-172.9863
50.799999	43.057	-175.1370
51.500000	43.445	-177.0230
52.200001	43.601	-176.9922
53.000000	43.744	-174.6857
53.799999	43.980	-171.7407
54.500000	44.255	-170.0591
55.200001	44.566	-170.1628
56.000000	44.964	-173.0350
57.000000	45.835	178.2540
58.000000	47.156	155.3680
59.000000	47.867	105.1138
60.000000	47.435	27.0284
60.799999	46.715	-43.6948
61.500000	46.323	-98.8306
62.200001	46.296	-139.5596
63.000000	46.582	-167.0164
64.000000	47.134	178.6572
65.000000	47.635	174.7288
66.000000	47.989	174.1967
67.000000	48.181	174.3085
68.000000	48.281	174.3917
69.000000	48.393	174.0876
70.000000	48.541	173.2281
71.000000	48.713	172.0996
72.000000	48.907	171.0707
73.000000	49.120	170.2526
74.000000	49.328	169.5963
75.000000	49.521	169.0950
76.199997	49.756	168.6041
77.500000	50.037	167.8645
78.800003	50.322	166.8027
80.000000	50.572	165.7720
81.199997	50.810	164.8673
82.500000	51.061	164.0437
83.800003	51.307	163.1729
85.000000	51.514	162.1587
86.199997	51.686	160.9861
87.500000	51.834	159.8274
88.500000	51.948	159.2191
90.000000	52.175	158.6292
91.199997	52.397	158.1359
92.500000	52.642	157.4667
93.800003	52.870	156.7576
95.000000	53.066	156.2250
96.199997	53.256	155.8497
97.500000	53.450	155.5068
98.800003	53.611	155.1622
100.000000	53.737	154.8771
101.500000	53.904	154.5856
103.000000	54.129	154.2742
104.400002	54.385	153.9224
106.000000	54.709	153.6235
107.500000	55.040	153.3630
109.000000	55.365	152.7815
110.599998	55.679	151.7954
112.000000	55.952	150.8094
113.800003	56.293	149.4539
115.000000	56.473	148.6589
117.199997	56.661	148.0580
118.000000	56.708	148.1372
120.599998	56.930	148.3180
122.000000	57.094	147.9114
124.099998	57.388	147.2083
125.000000	57.538	147.0205
126.500000	57.796	146.8149
128.000000	58.031	146.6807
131.500000	58.530	146.3937
132.000000	58.606	146.2914
134.000000	58.909	145.6841
136.000000	59.178	144.9618
138.000000	59.399	144.3997
140.000000	59.615	143.9934
143.000000	60.003	143.2430
145.000000	60.318	142.6157
147.500000	60.751	141.7395
150.000000	61.177	140.8479
152.500000	61.572	140.0352
155.000000	61.949	139.1686
157.500000	62.322	138.0912
160.000000	62.702	136.8599
162.500000	63.065	135.6456
165.000000	63.401	134.6526
167.500000	63.736	133.8137
170.000000	64.081	132.9301
172.500000	64.423	131.9211
175.000000	64.764	130.7844
177.500000	65.121	129.5018
180.000000	65.496	128.1755
182.500000	65.877	126.9509
185.000000	66.242	125.8192
187.500000	66.588	124.6863
190.000000	66.927	123.4388
192.500000	67.270	122.0229
195.000000	67.622	120.4672
197.500000	67.981	118.8202
200.000000	68.341	117.1060
203.000000	68.767	114.9475
206.000000	69.179	112.6760
209.000000	69.576	110.2969
212.000000	69.955	107.7637
214.000000	70.198	105.9758
218.000000	70.665	102.1946
220.000000	70.888	100.2155
224.000000	71.303	96.1136
227.000000	71.583	92.9348
230.000000	71.836	89.6823
233.000000	72.061	86.3638
236.000000	72.258	82.9806
240.000000	72.473	78.3838
243.000000	72.595	74.9084
247.000000	72.708	70.2957
250.000000	72.757	66.8728
254.000000	72.778	62.3951
258.000000	72.753	58.0881
262.000000	72.682	53.9897
265.000000	72.599	51.0581
269.000000	72.451	47.3754
272.000000	72.321	44.8146
276.000000	72.131	41.6698
280.000000	71.931	38.7885
285.000000	71.676	35.5046
290.000000	71.417	32.5430
295.000000	71.158	29.8589
300.000000	70.904	27.4452
304.000000	70.706	25.7092
307.000000	70.561	24.4802
311.000000	70.371	22.8821
315.000000	70.183	21.3149
320.000000	69.945	19.4377
325.000000	69.706	17.7147
330.000000	69.466	16.1792
335.000000	69.227	14.8193
340.000000	68.988	13.6047
345.000000	68.750	12.5220
350.000000	68.516	11.5702
355.000000	68.292	10.7561
360.000000	68.087	10.0701
365.000000	67.902	9.4825
370.000000	67.732	8.9449
375.000000	67.568	8.4120
382.000000	67.343	7.6709
387.000000	67.187	7.1802
395.000000	66.944	6.4846
400.000000	66.791	6.1207
406.000000	66.604	5.7465
412.000000	66.413	5.4398
418.000000	66.217	5.2314
425.000000	65.968	5.1774
431.000000	65.743	5.4733
437.000000	65.543	6.3556
444.000000	65.453	8.1035
450.000000	65.570	9.4941
455.000000	65.758	9.9104
462.000000	65.982	9.0933
468.000000	66.035	7.6698
475.000000	65.952	6.0825
482.000000	65.799	4.9966
487.000000	65.686	4.5183
494.000000	65.550	4.1368
500.000000	65.450	3.9642
508.000000	65.328	3.8208
515.000000	65.214	3.7206
522.000000	65.101	3.6309
530.000000	64.989	3.5759
538.000000	64.898	3.5811
545.000000	64.828	3.5770
552.000000	64.760	3.5441
560.000000	64.675	3.5322
570.000000	64.565	3.6494
580.000000	64.471	3.8561
590.000000	64.395	4.0707
600.000000	64.330	4.2827
608.000000	64.283	4.4335
615.000000	64.244	4.5505
622.000000	64.208	4.6653
630.000000	64.169	4.8024
640.000000	64.126	4.9800
650.000000	64.089	5.1658
660.000000	64.059	5.3621
670.000000	64.030	5.5637
680.000000	63.997	5.7686
690.000000	63.965	5.9846
700.000000	63.936	6.2174
710.000000	63.908	6.4548
720.000000	63.885	6.6891
730.000000	63.866	6.9235
740.000000	63.846	7.1426
750.000000	63.823	7.3419
762.000000	63.799	7.5931
775.000000	63.782	7.8966
788.000000	63.769	8.1814
800.000000	63.763	8.4001
812.000000	63.761	8.5935
825.000000	63.756	8.7841
838.000000	63.742	8.9701
850.000000	63.722	9.1705
862.000000	63.707	9.4130
875.000000	63.698	9.6990
885.000000	63.693	9.9386
900.000000	63.684	10.3563
912.000000	63.677	10.7157
925.000000	63.672	11.0743
938.000000	63.671	11.3961
950.000000	63.675	11.6814
962.000000	63.682	11.9624
975.000000	63.689	12.2721
988.000000	63.691	12.5947
1000.000000	63.691	12.9087
1015.000000	63.689	13.3450
1030.000000	63.683	13.8359
1044.000000	63.678	14.3314
1060.000000	63.683	14.9189
1075.000000	63.697	15.4691
1090.000000	63.719	16.0236
1106.000000	63.749	16.6127
1120.000000	63.781	17.1045
1138.000000	63.829	17.6937
1150.000000	63.863	18.0714
1172.000000	63.923	18.7737
1180.000000	63.943	19.0354
1206.000000	64.010	19.8646
1220.000000	64.049	20.2755
1241.000000	64.110	20.8884
1250.000000	64.135	21.1647
1265.000000	64.176	21.6379
1280.000000	64.219	22.1130
1315.000000	64.337	23.2340
1320.000000	64.355	23.3948
1340.000000	64.433	24.0142
1360.000000	64.512	24.5920
1380.000000	64.592	25.1609
1400.000000	64.675	25.7323
1430.000000	64.800	26.5393
1450.000000	64.876	27.0597
1475.000000	64.965	27.7440
1500.000000	65.064	28.4943
1525.000000	65.176	29.2938
1550.000000	65.295	30.0948
1575.000000	65.422	30.8873
1600.000000	65.558	31.6420
1625.000000	65.699	32.3365
1650.000000	65.846	33.0050
1675.000000	66.000	33.6425
1700.000000	66.152	34.2458
1725.000000	66.305	34.8597
1750.000000	66.469	35.4813
1775.000000	66.645	36.0260
1800.000000	66.824	36.4127
1825.000000	66.995	36.6680
1850.000000	67.154	36.8911
1875.000000	67.305	37.1404
1900.000000	67.454	37.4152
1925.000000	67.600	37.7080
1950.000000	67.749	38.0255
1975.000000	67.905	38.3458
2000.000000	68.065	38.6073
2030.000000	68.252	38.8455
2060.000000	68.437	39.1062
2090.000000	68.633	39.3921
2120.000000	68.836	39.6298
2140.000000	68.973	39.7391
2180.000000	69.253	39.7944
2200.000000	69.392	39.7378
2240.000000	69.663	39.4834
2270.000000	69.849	39.1775
2300.000000	70.012	38.7798
2330.000000	70.147	38.3365
2360.000000	70.256	37.9634
2400.000000	70.388	37.6644
2430.000000	70.487	37.5259
2470.000000	70.619	37.3143
2500.000000	70.703	37.1185
2540.000000	70.790	36.9426
2580.000000	70.858	36.9093
2620.000000	70.905	37.1023
2650.000000	70.941	37.4404
2690.000000	71.001	38.0471
2720.000000	71.048	38.5928
2760.000000	71.114	39.5358
2800.000000	71.206	40.7476
2850.000000	71.379	42.4905
2900.000000	71.604	44.3402
2950.000000	71.868	46.3353
3000.000000	72.195	48.5426
3040.000000	72.530	50.3447
3070.000000	72.820	51.5938
3110.000000	73.240	53.0718
3150.000000	73.682	54.4026
3200.000000	74.282	56.0149
3250.000000	74.973	57.5468
3300.000000	75.764	58.7007
3350.000000	76.620	59.1682
3400.000000	77.497	58.8462
3450.000000	78.371	57.8142
3500.000000	79.236	56.1508
3550.000000	80.080	53.8088
3600.000000	80.876	50.8013
3650.000000	81.620	47.2817
3700.000000	82.322	43.3588
3750.000000	82.984	38.9895
3820.000000	83.806	32.0327
3870.000000	84.300	26.6318
3950.000000	84.997	17.7513
4000.000000	85.424	11.8451
4060.000000	85.892	3.7661
4120.000000	86.204	-5.6364
4180.000000	86.273	-15.9856
4250.000000	86.001	-28.3118
4310.000000	85.468	-38.2598
4370.000000	84.694	-47.0104
4440.000000	83.561	-55.2693
4500.000000	82.468	-60.6323
4550.000000	81.518	-64.0054
4620.000000	80.179	-67.2977
4680.000000	79.060	-69.0347
4750.000000	77.813	-70.0712
4820.000000	76.640	-70.2511
4870.000000	75.851	-69.9506
4940.000000	74.817	-69.0601
5000.000000	73.993	-67.9652
5080.000000	72.972	-66.1382
5150.000000	72.143	-64.2716
5220.000000	71.357	-62.1907
5300.000000	70.489	-59.4532
5380.000000	69.647	-56.1515
5450.000000	68.952	-52.7272
5520.000000	68.321	-48.8540
5600.000000	67.704	-44.0360
5700.000000	67.121	-37.8818
5800.000000	66.703	-32.1572
5900.000000	66.330	-26.6083
6000.000000	65.986	-20.7158
6080.000000	65.767	-15.6077
6150.000000	65.651	-10.7876
6220.000000	65.644	-5.6554
6300.000000	65.823	0.3428
6400.000000	66.336	7.0624
6500.000000	66.994	11.7589
6600.000000	67.553	14.4730
6700.000000	67.935	16.4640
6800.000000	68.238	18.8939
6900.000000	68.615	22.0381
7000.000000	69.174	25.3845
7100.000000	69.910	28.1086
7200.000000	70.731	29.5834
7300.000000	71.538	29.6499
7400.000000	72.279	28.5232
7500.000000	72.944	26.5011
7620.000000	73.651	23.0693
7750.000000	74.275	18.0475
7880.000000	74.682	11.7474
8000.000000	74.808	5.3296
8120.000000	74.703	-0.9270
8250.000000	74.396	-7.0400
8380.000000	73.952	-12.3794
8500.000000	73.460	-16.5984
8620.000000	72.944	-20.2689
8750.000000	72.409	-24.1653
8850.000000	72.005	-27.5449
9000.000000	71.315	-33.6284
9120.000000	70.578	-39.0934
9250.000000	69.497	-44.6226
9380.000000	68.067	-48.2122
9500.000000	66.437	-48.2424
9620.000000	64.592	-44.0312
9750.000000	62.630	-34.9647
9880.000000	61.247	-23.8849
10000.000000	60.783	-15.2125
10150.000000	60.858	-9.0426
10300.000000	60.944	-7.3163
10440.000000	60.727	-7.5570
10600.000000	60.078	-7.4204
10750.000000	59.218	-5.1564
10900.000000	58.397	-0.3617
11060.000000	57.973	5.8442
11200.000000	58.020	8.8729
11380.000000	57.953	7.5105
11500.000000	57.515	5.3651
11720.000000	55.821	5.8751
11800.000000	55.000	8.6514
12060.000000	52.559	27.0951
12200.000000	52.230	39.9663
12410.000000	53.391	55.6973
12500.000000	54.133	59.4351
12650.000000	55.237	60.9773
12800.000000	55.959	57.7585
13150.000000	55.888	43.4133
13200.000000	55.684	41.6409
13400.000000	54.448	37.6115
13600.000000	52.828	39.1667
13800.000000	51.400	43.4441
14000.000000	50.362	46.8939
14300.000000	48.720	55.4182
14500.000000	47.850	70.4214
14750.000000	48.750	93.9564
15000.000000	50.849	105.5391
15250.000000	52.319	102.3723
15500.000000	52.952	93.4039
15750.000000	53.172	84.4022
16000.000000	53.290	75.0461
16250.000000	53.160	63.6710
16500.000000	52.453	51.8142
16750.000000	51.111	43.1196
17000.000000	49.391	39.7738
17250.000000	47.817	41.6277
17500.000000	47.191	45.3000
17750.000000	47.656	44.9806
18000.000000	48.372	37.7009
18250.000000	48.796	25.3162
18500.000000	48.974	10.7842
18750.000000	49.206	-4.7379
19000.000000	49.794	-22.0865
19250.000000	50.758	-42.9442
19500.000000	51.818	-67.3517
19750.000000	52.666	-91.3505
