* Measurement data measured by REW V5.31.1
* Source: RMS + phase average
* Format: RMS + phase average
* Dated: Jul 23, 2024 4:59:24 PM
* REW Settings:
*  C-weighting compensation: Off
*  Target level: 75.0 dB
* Note: RMS + phase average of R MM500, R MM500, R MM500
* Measurement: RMS + phase average R
* Smoothing: 1/12 octave
* Frequency Step: 1/48 octave
* Start Frequency: 20.000 Hz
*
* Freq(Hz)	SPL(dB)	Phase(degrees)
20.000000	62.767	-106.2835
20.299999	62.811	-106.9492
20.600000	62.822	-107.4615
20.900000	62.816	-107.7510
21.200001	62.809	-107.7862
21.400000	62.814	-107.6803
21.799999	62.874	-107.3049
22.000000	62.935	-107.1540
22.400000	63.109	-107.2796
22.700001	63.253	-107.9696
23.000000	63.359	-109.2079
23.299999	63.383	-110.8169
23.600000	63.295	-112.4353
24.000000	63.004	-113.7564
24.299999	62.721	-113.5102
24.700001	62.469	-111.1880
25.000000	62.533	-108.5225
25.400000	63.022	-105.6197
25.799999	63.776	-105.1169
26.200001	64.500	-107.2103
26.500000	64.916	-109.9662
26.900000	65.267	-114.3388
27.200001	65.400	-117.6134
27.600000	65.476	-121.3554
28.000000	65.514	-123.9226
28.500000	65.589	-125.2943
29.000000	65.693	-125.1664
29.500000	65.775	-124.5725
30.000000	65.796	-124.3978
30.400000	65.761	-124.7165
30.700001	65.712	-125.0730
31.100000	65.640	-125.4115
31.500000	65.596	-125.3682
32.000000	65.633	-124.9600
32.500000	65.753	-124.8702
33.000000	65.848	-125.5646
33.500000	65.817	-126.6920
34.000000	65.654	-127.4931
34.500000	65.449	-127.5559
35.000000	65.294	-127.1274
35.500000	65.208	-126.6652
36.000000	65.165	-126.2727
36.500000	65.173	-125.8140
37.000000	65.273	-125.4062
37.500000	65.454	-125.4569
38.200001	65.700	-126.5545
38.700001	65.795	-127.5975
39.500000	65.882	-128.7981
40.000000	65.951	-129.3959
40.599998	66.006	-130.2416
41.200001	65.967	-130.8942
41.799999	65.877	-130.7906
42.500000	65.859	-129.8809
43.099998	65.956	-129.3188
43.700001	66.079	-129.4544
44.400002	66.167	-130.1829
45.000000	66.212	-130.8949
45.500000	66.266	-131.4915
46.200001	66.398	-132.4541
46.799999	66.555	-133.4505
47.500000	66.752	-134.7969
48.200001	66.924	-136.2890
48.700001	67.012	-137.3114
49.400002	67.084	-138.3529
50.000000	67.121	-138.7064
50.799999	67.160	-138.6191
51.500000	67.159	-138.2961
52.200001	67.103	-137.6768
53.000000	67.013	-136.4410
53.799999	66.979	-134.8018
54.500000	67.066	-133.5317
55.200001	67.276	-133.2863
56.000000	67.528	-134.9887
57.000000	67.592	-139.0886
58.000000	67.384	-142.9129
59.000000	67.115	-145.0619
60.000000	66.975	-145.5893
60.799999	66.977	-145.6514
61.500000	66.979	-145.6665
62.200001	66.955	-145.3539
63.000000	66.955	-144.5331
64.000000	67.035	-143.6650
65.000000	67.124	-143.5316
66.000000	67.173	-143.8649
67.000000	67.201	-144.2960
68.000000	67.248	-144.6264
69.000000	67.327	-144.8882
70.000000	67.417	-145.1397
71.000000	67.494	-145.3913
72.000000	67.542	-145.6445
73.000000	67.564	-145.9112
74.000000	67.570	-146.2699
75.000000	67.563	-146.7749
76.199997	67.542	-147.4041
77.500000	67.540	-147.8724
78.800003	67.577	-148.1520
80.000000	67.620	-148.3931
81.199997	67.633	-148.6275
82.500000	67.609	-148.8458
83.800003	67.568	-149.0152
85.000000	67.550	-149.1998
86.199997	67.565	-149.5120
87.500000	67.592	-149.9835
88.500000	67.608	-150.2650
90.000000	67.632	-150.6134
91.199997	67.633	-150.8398
92.500000	67.631	-151.0988
93.800003	67.604	-151.4935
95.000000	67.549	-151.6685
96.199997	67.502	-151.4814
97.500000	67.479	-151.0520
98.800003	67.459	-150.4616
100.000000	67.450	-149.7670
101.500000	67.469	-149.1271
103.000000	67.497	-149.1955
104.400002	67.520	-149.7480
106.000000	67.590	-150.7091
107.500000	67.693	-151.8199
109.000000	67.782	-152.8829
110.599998	67.822	-153.5997
112.000000	67.825	-153.7762
113.800003	67.826	-153.5974
115.000000	67.838	-153.3110
117.199997	67.908	-152.5555
118.000000	67.946	-152.3016
120.599998	68.021	-152.1407
122.000000	67.985	-152.3864
124.099998	67.875	-152.8374
125.000000	67.831	-153.0018
126.500000	67.780	-153.1829
128.000000	67.758	-153.2359
131.500000	67.750	-153.1265
132.000000	67.747	-153.1243
134.000000	67.732	-153.1490
136.000000	67.728	-153.2050
138.000000	67.730	-153.2731
140.000000	67.724	-153.3040
143.000000	67.711	-153.3843
145.000000	67.717	-153.5075
147.500000	67.747	-153.6468
150.000000	67.770	-153.6230
152.500000	67.772	-153.4500
155.000000	67.761	-153.3768
157.500000	67.750	-153.3859
160.000000	67.760	-153.3322
162.500000	67.774	-153.2284
165.000000	67.780	-153.1472
167.500000	67.778	-153.1779
170.000000	67.753	-153.1950
172.500000	67.698	-152.9638
175.000000	67.656	-152.7936
177.500000	67.646	-153.0451
180.000000	67.681	-153.3226
182.500000	67.749	-153.3377
185.000000	67.808	-153.1192
187.500000	67.839	-152.8254
190.000000	67.847	-152.5648
192.500000	67.845	-152.3509
195.000000	67.845	-152.2185
197.500000	67.855	-152.1689
200.000000	67.871	-152.1057
203.000000	67.889	-151.9440
206.000000	67.902	-151.7552
209.000000	67.919	-151.6099
212.000000	67.942	-151.4993
214.000000	67.955	-151.4451
218.000000	67.960	-151.3336
220.000000	67.953	-151.2265
224.000000	67.942	-150.9303
227.000000	67.943	-150.6999
230.000000	67.952	-150.5049
233.000000	67.967	-150.3990
236.000000	67.986	-150.3870
240.000000	68.004	-150.3220
243.000000	68.011	-150.0796
247.000000	68.021	-149.6498
250.000000	68.032	-149.3828
254.000000	68.046	-149.1163
258.000000	68.057	-148.8941
262.000000	68.069	-148.6769
265.000000	68.080	-148.5162
269.000000	68.097	-148.3175
272.000000	68.108	-148.1652
276.000000	68.119	-147.9431
280.000000	68.125	-147.7307
285.000000	68.132	-147.5127
290.000000	68.150	-147.3032
295.000000	68.169	-147.0801
300.000000	68.182	-146.8479
304.000000	68.189	-146.6573
307.000000	68.194	-146.5162
311.000000	68.200	-146.3290
315.000000	68.206	-146.1356
320.000000	68.211	-145.8829
325.000000	68.211	-145.6127
330.000000	68.208	-145.3389
335.000000	68.204	-145.0849
340.000000	68.201	-144.8349
345.000000	68.201	-144.5766
350.000000	68.201	-144.3053
355.000000	68.197	-144.0193
360.000000	68.188	-143.7128
365.000000	68.178	-143.3882
370.000000	68.167	-143.0642
375.000000	68.156	-142.7251
382.000000	68.137	-142.2180
387.000000	68.122	-141.8414
395.000000	68.098	-141.1843
400.000000	68.086	-140.7299
406.000000	68.077	-140.1731
412.000000	68.071	-139.6208
418.000000	68.068	-139.0514
425.000000	68.070	-138.3490
431.000000	68.078	-137.7269
437.000000	68.088	-137.0945
444.000000	68.100	-136.3732
450.000000	68.112	-135.7758
455.000000	68.121	-135.2822
462.000000	68.135	-134.5783
468.000000	68.149	-133.9599
475.000000	68.170	-133.2363
482.000000	68.197	-132.5421
487.000000	68.220	-132.0661
494.000000	68.253	-131.4066
500.000000	68.281	-130.8465
508.000000	68.321	-130.1192
515.000000	68.359	-129.4996
522.000000	68.397	-128.8975
530.000000	68.443	-128.2367
538.000000	68.487	-127.6005
545.000000	68.523	-127.0638
552.000000	68.557	-126.5390
560.000000	68.594	-125.9372
570.000000	68.644	-125.1896
580.000000	68.696	-124.4692
590.000000	68.742	-123.7815
600.000000	68.779	-123.1104
608.000000	68.805	-122.5693
615.000000	68.826	-122.0930
622.000000	68.846	-121.6188
630.000000	68.868	-121.0750
640.000000	68.894	-120.3776
650.000000	68.916	-119.6560
660.000000	68.937	-118.9126
670.000000	68.957	-118.1464
680.000000	68.978	-117.3426
690.000000	69.003	-116.5018
700.000000	69.032	-115.6490
710.000000	69.065	-114.8100
720.000000	69.097	-113.9891
730.000000	69.128	-113.1666
740.000000	69.158	-112.3189
750.000000	69.192	-111.4408
762.000000	69.240	-110.3695
775.000000	69.298	-109.2246
788.000000	69.359	-108.0948
800.000000	69.417	-107.0421
812.000000	69.481	-105.9754
825.000000	69.560	-104.8034
838.000000	69.652	-103.6070
850.000000	69.755	-102.5257
862.000000	69.870	-101.5553
875.000000	69.997	-100.6688
885.000000	70.087	-100.0782
900.000000	70.208	-99.2598
912.000000	70.295	-98.6164
925.000000	70.387	-97.9007
938.000000	70.483	-97.1823
950.000000	70.576	-96.5792
962.000000	70.665	-96.0592
975.000000	70.748	-95.5412
988.000000	70.820	-94.9951
1000.000000	70.886	-94.4412
1015.000000	70.979	-93.7549
1030.000000	71.079	-93.1961
1044.000000	71.159	-92.7913
1060.000000	71.227	-92.3452
1075.000000	71.276	-91.8621
1090.000000	71.327	-91.3436
1106.000000	71.383	-90.8361
1120.000000	71.426	-90.4448
1138.000000	71.465	-89.9509
1150.000000	71.483	-89.5973
1172.000000	71.509	-88.9376
1180.000000	71.514	-88.7157
1206.000000	71.489	-87.9673
1220.000000	71.453	-87.3944
1241.000000	71.409	-86.2233
1250.000000	71.403	-85.6728
1265.000000	71.404	-84.7880
1280.000000	71.411	-83.9489
1315.000000	71.444	-82.0953
1320.000000	71.448	-81.8529
1340.000000	71.457	-80.9049
1360.000000	71.450	-79.9132
1380.000000	71.444	-78.7874
1400.000000	71.464	-77.6247
1430.000000	71.527	-76.2230
1450.000000	71.551	-75.5855
1475.000000	71.534	-74.9612
1500.000000	71.448	-74.3912
1525.000000	71.280	-73.6588
1550.000000	71.039	-72.3834
1575.000000	70.782	-70.3295
1600.000000	70.577	-67.5689
1625.000000	70.472	-64.4484
1650.000000	70.459	-61.4539
1675.000000	70.486	-58.7923
1700.000000	70.505	-56.3836
1725.000000	70.503	-53.9347
1750.000000	70.508	-51.2068
1775.000000	70.564	-48.2772
1800.000000	70.682	-45.4537
1825.000000	70.840	-42.9488
1850.000000	71.007	-40.8403
1875.000000	71.154	-39.0788
1900.000000	71.257	-37.5122
1925.000000	71.313	-35.9427
1950.000000	71.326	-34.2117
1975.000000	71.318	-32.0953
2000.000000	71.335	-29.6031
2030.000000	71.412	-26.5051
2060.000000	71.523	-23.5222
2090.000000	71.638	-20.6642
2120.000000	71.741	-17.7778
2140.000000	71.806	-15.7263
2180.000000	71.971	-11.0230
2200.000000	72.109	-8.4027
2240.000000	72.528	-3.4116
2270.000000	72.904	-0.2899
2300.000000	73.280	2.4054
2330.000000	73.640	4.8697
2360.000000	73.998	7.3424
2400.000000	74.523	10.6092
2430.000000	74.951	12.8361
2470.000000	75.546	15.4990
2500.000000	76.017	17.3381
2540.000000	76.705	19.4796
2580.000000	77.454	20.8858
2620.000000	78.205	21.3216
2650.000000	78.740	21.0455
2690.000000	79.386	19.9864
2720.000000	79.801	18.7515
2760.000000	80.239	16.7192
2800.000000	80.540	14.5491
2850.000000	80.759	12.0910
2900.000000	80.872	10.1021
2950.000000	80.923	8.5824
3000.000000	80.971	7.4661
3040.000000	81.026	6.5350
3070.000000	81.055	5.6844
3110.000000	81.044	4.4300
3150.000000	80.974	3.2100
3200.000000	80.806	1.8572
3250.000000	80.551	0.9603
3300.000000	80.269	0.7619
3350.000000	80.036	0.9797
3400.000000	79.856	1.1354
3450.000000	79.679	0.9861
3500.000000	79.447	0.6053
3550.000000	79.143	0.2977
3600.000000	78.793	0.1914
3650.000000	78.411	0.1669
3700.000000	77.973	0.1895
3750.000000	77.453	0.4360
3820.000000	76.591	1.7149
3870.000000	75.923	3.5916
3950.000000	74.910	8.2653
4000.000000	74.380	11.7793
4060.000000	73.837	15.9366
4120.000000	73.308	19.8899
4180.000000	72.721	24.1544
4250.000000	71.998	30.4284
4310.000000	71.461	37.2389
4370.000000	71.128	44.9823
4440.000000	71.067	53.8709
4500.000000	71.214	60.2705
4550.000000	71.369	64.5728
4620.000000	71.530	69.6468
4680.000000	71.606	73.7495
4750.000000	71.666	78.6770
4820.000000	71.756	83.8511
4870.000000	71.877	87.6181
4940.000000	72.153	92.5799
5000.000000	72.463	96.0919
5080.000000	72.870	99.4298
5150.000000	73.133	101.3461
5220.000000	73.267	102.7504
5300.000000	73.262	104.2651
5380.000000	73.124	106.1103
5450.000000	72.941	108.1817
5520.000000	72.742	110.6243
5600.000000	72.511	113.6131
5700.000000	72.174	117.5912
5800.000000	71.783	122.5097
5900.000000	71.506	128.8235
6000.000000	71.523	135.3509
6080.000000	71.709	139.5975
6150.000000	71.911	142.2990
6220.000000	72.079	144.1284
6300.000000	72.175	145.4551
6400.000000	72.119	146.5225
6500.000000	71.872	147.4515
6600.000000	71.444	148.6249
6700.000000	70.836	150.5559
6800.000000	70.110	153.9813
6900.000000	69.432	158.9712
7000.000000	68.918	164.6604
7100.000000	68.554	170.2812
7200.000000	68.286	175.5148
7300.000000	68.057	-179.8090
7400.000000	67.800	-175.6640
7500.000000	67.460	-171.7154
7620.000000	66.938	-166.6130
7750.000000	66.304	-159.9750
7880.000000	65.773	-151.9775
8000.000000	65.522	-144.2681
8120.000000	65.500	-137.3230
8250.000000	65.672	-131.3871
8380.000000	65.972	-127.7332
8500.000000	66.258	-126.8303
8620.000000	66.412	-128.4294
8750.000000	66.286	-132.5771
8850.000000	65.961	-137.1077
9000.000000	65.124	-146.0092
9120.000000	64.081	-154.9101
9250.000000	62.494	-165.7346
9380.000000	60.527	-177.2626
9500.000000	58.629	171.4807
9620.000000	56.910	159.9657
9750.000000	55.354	149.1790
9880.000000	54.142	143.5687
10000.000000	53.660	145.2478
10150.000000	54.655	155.4696
10300.000000	57.155	167.0952
10440.000000	59.828	172.8610
10600.000000	62.509	172.7608
10750.000000	64.304	168.0599
10900.000000	65.184	161.2061
11060.000000	65.044	154.7183
11200.000000	64.189	152.3824
11380.000000	62.687	156.2589
11500.000000	61.885	162.9560
11720.000000	61.525	178.7756
11800.000000	61.702	-175.7917
12060.000000	62.766	-161.5537
12200.000000	63.569	-155.4056
12410.000000	65.241	-147.9614
12500.000000	66.112	-145.8777
12650.000000	67.625	-144.4763
12800.000000	69.026	-145.7455
13150.000000	71.186	-155.8753
13200.000000	71.354	-157.7574
13400.000000	71.711	-165.5461
13600.000000	71.662	-173.2189
13800.000000	71.232	179.7223
14000.000000	70.392	173.9707
14300.000000	68.554	168.4940
14500.000000	67.215	165.9733
14750.000000	65.753	162.5997
15000.000000	65.138	164.9289
15250.000000	66.254	-83.7372
15500.000000	68.182	-78.6913
15750.000000	69.578	-90.7205
16000.000000	70.325	-103.7068
16250.000000	70.708	-116.0831
16500.000000	70.849	-127.8123
16750.000000	70.833	-139.0701
17000.000000	70.829	-151.3951
17250.000000	70.738	-166.9664
17500.000000	70.235	174.4784
17750.000000	69.180	154.9398
18000.000000	67.598	135.8426
18250.000000	65.538	118.2375
18500.000000	63.123	103.5672
18750.000000	60.646	92.6641
19000.000000	58.607	83.8428
19250.000000	57.509	73.6144
19500.000000	57.413	60.9853
19750.000000	57.830	51.4026
20000.000000	58.190	52.3398
