* Measurement data measured by REW V5.31.1
* Source: Frequency response averaged data
* Format: Averaged data produced from the rms magnitudes of R Moondrop Void, R Moondrop Void, R Moondrop Void
* Dated: Jun 30, 2024 12:06:30 PM
* REW Settings:
*  C-weighting compensation: Off
*  Target level: 75.0 dB
* Note: Averaged data produced from the rms magnitudes of R Moondrop Void, R Moondrop Void, R Moondrop Void
* Measurement: RMS Average R
* Smoothing: 1/12 octave
* Frequency Step: 1/48 octave
* Start Frequency: 20.000 Hz
*
* Freq(Hz)	SPL(dB)
20.000000	78.374
20.299999	78.555
20.600000	78.731
20.900000	78.909
21.200001	79.090
21.400000	79.210
21.799999	79.443
22.000000	79.551
22.400000	79.747
22.700001	79.880
23.000000	80.008
23.299999	80.141
23.600000	80.283
24.000000	80.489
24.299999	80.649
24.700001	80.858
25.000000	81.005
25.400000	81.181
25.799999	81.341
26.200001	81.489
26.500000	81.598
26.900000	81.743
27.200001	81.853
27.600000	82.002
28.000000	82.152
28.500000	82.334
29.000000	82.507
29.500000	82.667
30.000000	82.819
30.400000	82.939
30.700001	83.029
31.100000	83.148
31.500000	83.265
32.000000	83.406
32.500000	83.537
33.000000	83.656
33.500000	83.761
34.000000	83.860
34.500000	83.961
35.000000	84.071
35.500000	84.189
36.000000	84.309
36.500000	84.420
37.000000	84.520
37.500000	84.612
38.200001	84.735
38.700001	84.822
39.500000	84.961
40.000000	85.048
40.599998	85.150
41.200001	85.247
41.799999	85.332
42.500000	85.415
43.099998	85.478
43.700001	85.538
44.400002	85.603
45.000000	85.645
45.500000	85.668
46.200001	85.681
46.799999	85.677
47.500000	85.658
48.200001	85.628
48.700001	85.603
49.400002	85.570
50.000000	85.557
50.799999	85.575
51.500000	85.631
52.200001	85.718
53.000000	85.833
53.799999	85.941
54.500000	86.016
55.200001	86.068
56.000000	86.108
57.000000	86.158
58.000000	86.228
59.000000	86.306
60.000000	86.361
60.799999	86.381
61.500000	86.390
62.200001	86.404
63.000000	86.433
64.000000	86.490
65.000000	86.548
66.000000	86.587
67.000000	86.590
68.000000	86.557
69.000000	86.499
70.000000	86.434
71.000000	86.379
72.000000	86.355
73.000000	86.370
74.000000	86.422
75.000000	86.501
76.199997	86.622
77.500000	86.768
78.800003	86.915
80.000000	87.042
81.199997	87.157
82.500000	87.263
83.800003	87.348
85.000000	87.411
86.199997	87.463
87.500000	87.513
88.500000	87.549
90.000000	87.602
91.199997	87.642
92.500000	87.680
93.800003	87.712
95.000000	87.735
96.199997	87.753
97.500000	87.771
98.800003	87.788
100.000000	87.804
101.500000	87.826
103.000000	87.846
104.400002	87.854
106.000000	87.846
107.500000	87.830
109.000000	87.817
110.599998	87.805
112.000000	87.790
113.800003	87.755
115.000000	87.722
117.199997	87.655
118.000000	87.635
120.599998	87.609
122.000000	87.613
124.099998	87.621
125.000000	87.622
126.500000	87.619
128.000000	87.610
131.500000	87.564
132.000000	87.557
134.000000	87.531
136.000000	87.517
138.000000	87.507
140.000000	87.492
143.000000	87.453
145.000000	87.431
147.500000	87.421
150.000000	87.419
152.500000	87.406
155.000000	87.375
157.500000	87.342
160.000000	87.317
162.500000	87.297
165.000000	87.278
167.500000	87.262
170.000000	87.244
172.500000	87.224
175.000000	87.204
177.500000	87.182
180.000000	87.154
182.500000	87.123
185.000000	87.091
187.500000	87.062
190.000000	87.031
192.500000	86.998
195.000000	86.965
197.500000	86.934
200.000000	86.905
203.000000	86.872
206.000000	86.840
209.000000	86.809
212.000000	86.780
214.000000	86.760
218.000000	86.723
220.000000	86.706
224.000000	86.672
227.000000	86.646
230.000000	86.617
233.000000	86.580
236.000000	86.539
240.000000	86.482
243.000000	86.447
247.000000	86.413
250.000000	86.395
254.000000	86.376
258.000000	86.355
262.000000	86.332
265.000000	86.314
269.000000	86.291
272.000000	86.275
276.000000	86.251
280.000000	86.224
285.000000	86.191
290.000000	86.159
295.000000	86.130
300.000000	86.102
304.000000	86.083
307.000000	86.073
311.000000	86.063
315.000000	86.048
320.000000	86.015
325.000000	85.973
330.000000	85.933
335.000000	85.890
340.000000	85.839
345.000000	85.786
350.000000	85.739
355.000000	85.702
360.000000	85.671
365.000000	85.644
370.000000	85.609
375.000000	85.553
382.000000	85.469
387.000000	85.437
395.000000	85.439
400.000000	85.448
406.000000	85.441
412.000000	85.413
418.000000	85.376
425.000000	85.327
431.000000	85.286
437.000000	85.246
444.000000	85.202
450.000000	85.165
455.000000	85.135
462.000000	85.093
468.000000	85.060
475.000000	85.022
482.000000	84.984
487.000000	84.957
494.000000	84.928
500.000000	84.911
508.000000	84.895
515.000000	84.879
522.000000	84.857
530.000000	84.827
538.000000	84.794
545.000000	84.752
552.000000	84.682
560.000000	84.541
570.000000	84.279
580.000000	84.073
590.000000	84.020
600.000000	84.006
608.000000	83.966
615.000000	83.910
622.000000	83.835
630.000000	83.722
640.000000	83.527
650.000000	83.273
660.000000	82.987
670.000000	82.699
680.000000	82.440
690.000000	82.248
700.000000	82.172
710.000000	82.252
720.000000	82.479
730.000000	82.797
740.000000	83.164
750.000000	83.538
762.000000	83.949
775.000000	84.347
788.000000	84.691
800.000000	84.926
812.000000	85.063
825.000000	85.120
838.000000	85.128
850.000000	85.102
862.000000	85.035
875.000000	84.917
885.000000	84.806
900.000000	84.612
912.000000	84.433
925.000000	84.226
938.000000	84.022
950.000000	83.850
962.000000	83.704
975.000000	83.595
988.000000	83.555
1000.000000	83.586
1015.000000	83.692
1030.000000	83.861
1044.000000	84.071
1060.000000	84.348
1075.000000	84.612
1090.000000	84.851
1106.000000	85.054
1120.000000	85.180
1138.000000	85.266
1150.000000	85.279
1172.000000	85.221
1180.000000	85.175
1206.000000	84.953
1220.000000	84.802
1241.000000	84.568
1250.000000	84.472
1265.000000	84.327
1280.000000	84.208
1315.000000	84.054
1320.000000	84.046
1340.000000	84.047
1360.000000	84.080
1380.000000	84.117
1400.000000	84.146
1430.000000	84.195
1450.000000	84.242
1475.000000	84.321
1500.000000	84.416
1525.000000	84.493
1550.000000	84.546
1575.000000	84.603
1600.000000	84.703
1625.000000	84.861
1650.000000	85.052
1675.000000	85.251
1700.000000	85.449
1725.000000	85.635
1750.000000	85.801
1775.000000	85.955
1800.000000	86.109
1825.000000	86.271
1850.000000	86.439
1875.000000	86.611
1900.000000	86.788
1925.000000	86.979
1950.000000	87.190
1975.000000	87.426
2000.000000	87.689
2030.000000	88.042
2060.000000	88.428
2090.000000	88.828
2120.000000	89.197
2140.000000	89.395
2180.000000	89.605
2200.000000	89.605
2240.000000	89.403
2270.000000	89.122
2300.000000	88.854
2330.000000	88.769
2360.000000	88.943
2400.000000	89.450
2430.000000	89.897
2470.000000	90.460
2500.000000	90.838
2540.000000	91.326
2580.000000	91.851
2620.000000	92.406
2650.000000	92.808
2690.000000	93.293
2720.000000	93.617
2760.000000	93.998
2800.000000	94.326
2850.000000	94.663
2900.000000	94.924
2950.000000	95.134
3000.000000	95.322
3040.000000	95.427
3070.000000	95.456
3110.000000	95.427
3150.000000	95.334
3200.000000	95.134
3250.000000	94.805
3300.000000	94.274
3350.000000	93.497
3400.000000	92.560
3450.000000	91.678
3500.000000	91.083
3550.000000	90.893
3600.000000	91.032
3650.000000	91.302
3700.000000	91.548
3750.000000	91.692
3820.000000	91.712
3870.000000	91.649
3950.000000	91.535
4000.000000	91.465
4060.000000	91.357
4120.000000	91.190
4180.000000	90.948
4250.000000	90.574
4310.000000	90.196
4370.000000	89.790
4440.000000	89.310
4500.000000	88.922
4550.000000	88.632
4620.000000	88.291
4680.000000	88.059
4750.000000	87.864
4820.000000	87.763
4870.000000	87.746
4940.000000	87.795
5000.000000	87.901
5080.000000	88.139
5150.000000	88.443
5220.000000	88.831
5300.000000	89.347
5380.000000	89.892
5450.000000	90.337
5520.000000	90.686
5600.000000	90.875
5700.000000	90.652
5800.000000	89.858
5900.000000	88.639
6000.000000	87.328
6080.000000	86.452
6150.000000	85.888
6220.000000	85.485
6300.000000	85.137
6400.000000	84.750
6500.000000	84.354
6600.000000	83.945
6700.000000	83.545
6800.000000	83.185
6900.000000	82.910
7000.000000	82.763
7100.000000	82.739
7200.000000	82.768
7300.000000	82.747
7400.000000	82.597
7500.000000	82.290
7620.000000	81.776
7750.000000	81.292
7880.000000	81.244
8000.000000	81.683
8120.000000	82.391
8250.000000	83.123
8380.000000	83.518
8500.000000	83.449
8620.000000	82.985
8750.000000	82.254
8850.000000	81.848
9000.000000	82.140
9120.000000	83.104
9250.000000	84.275
9380.000000	85.110
9500.000000	85.392
9620.000000	85.152
9750.000000	84.328
9880.000000	82.997
10000.000000	81.414
10150.000000	79.166
10300.000000	77.120
10440.000000	76.164
10600.000000	76.598
10750.000000	77.777
10900.000000	78.944
11060.000000	79.791
11200.000000	80.211
11380.000000	80.751
11500.000000	81.369
11720.000000	82.953
11800.000000	83.551
12060.000000	85.214
12200.000000	85.885
12410.000000	86.537
12500.000000	86.693
12650.000000	86.909
12800.000000	87.287
13150.000000	88.775
13200.000000	88.925
13400.000000	89.134
13600.000000	88.769
13800.000000	88.032
14000.000000	87.143
14300.000000	85.895
14500.000000	85.255
14750.000000	84.931
15000.000000	85.546
15250.000000	86.897
15500.000000	88.210
15750.000000	88.931
16000.000000	88.891
16250.000000	88.110
16500.000000	86.806
16750.000000	85.587
17000.000000	85.024
17250.000000	84.837
17500.000000	84.314
17750.000000	83.032
18000.000000	80.921
18250.000000	78.277
18500.000000	76.063
18750.000000	75.433
19000.000000	75.895
19250.000000	76.420
19500.000000	76.729
19750.000000	76.907
