* Measurement data measured by REW V5.31.1
* Source: Frequency response averaged data
* Format: Averaged data produced from the rms magnitudes of L Moondrop Void, L Moondrop Void, L Moondrop Void
* Dated: Jun 30, 2024 12:06:41 PM
* REW Settings:
*  C-weighting compensation: Off
*  Target level: 75.0 dB
* Note: Averaged data produced from the rms magnitudes of L Moondrop Void, L Moondrop Void, L Moondrop Void
* Measurement: RMS Average L
* Smoothing: 1/12 octave
* Frequency Step: 1/48 octave
* Start Frequency: 20.000 Hz
*
* Freq(Hz)	SPL(dB)
20.000000	76.610
20.299999	76.799
20.600000	76.976
20.900000	77.153
21.200001	77.340
21.400000	77.474
21.799999	77.758
22.000000	77.903
22.400000	78.181
22.700001	78.368
23.000000	78.528
23.299999	78.663
23.600000	78.779
24.000000	78.917
24.299999	79.020
24.700001	79.169
25.000000	79.293
25.400000	79.471
25.799999	79.659
26.200001	79.846
26.500000	79.982
26.900000	80.153
27.200001	80.274
27.600000	80.428
28.000000	80.576
28.500000	80.763
29.000000	80.953
29.500000	81.138
30.000000	81.304
30.400000	81.422
30.700001	81.504
31.100000	81.609
31.500000	81.716
32.000000	81.852
32.500000	81.985
33.000000	82.106
33.500000	82.212
34.000000	82.306
34.500000	82.396
35.000000	82.485
35.500000	82.580
36.000000	82.682
36.500000	82.795
37.000000	82.916
37.500000	83.038
38.200001	83.199
38.700001	83.299
39.500000	83.437
40.000000	83.516
40.599998	83.615
41.200001	83.724
41.799999	83.839
42.500000	83.966
43.099998	84.053
43.700001	84.117
44.400002	84.176
45.000000	84.220
45.500000	84.250
46.200001	84.267
46.799999	84.249
47.500000	84.181
48.200001	84.073
48.700001	83.982
49.400002	83.864
50.000000	83.801
50.799999	83.813
51.500000	83.917
52.200001	84.080
53.000000	84.293
53.799999	84.496
54.500000	84.654
55.200001	84.791
56.000000	84.927
57.000000	85.077
58.000000	85.211
59.000000	85.326
60.000000	85.425
60.799999	85.490
61.500000	85.533
62.200001	85.563
63.000000	85.581
64.000000	85.584
65.000000	85.575
66.000000	85.559
67.000000	85.535
68.000000	85.504
69.000000	85.463
70.000000	85.419
71.000000	85.381
72.000000	85.356
73.000000	85.352
74.000000	85.378
75.000000	85.437
76.199997	85.540
77.500000	85.667
78.800003	85.784
80.000000	85.869
81.199997	85.934
82.500000	85.991
83.800003	86.049
85.000000	86.106
86.199997	86.168
87.500000	86.236
88.500000	86.286
90.000000	86.354
91.199997	86.402
92.500000	86.445
93.800003	86.478
95.000000	86.501
96.199997	86.520
97.500000	86.539
98.800003	86.557
100.000000	86.571
101.500000	86.580
103.000000	86.578
104.400002	86.569
106.000000	86.561
107.500000	86.557
109.000000	86.560
110.599998	86.565
112.000000	86.564
113.800003	86.553
115.000000	86.544
117.199997	86.545
118.000000	86.553
120.599998	86.583
122.000000	86.593
124.099998	86.599
125.000000	86.599
126.500000	86.597
128.000000	86.592
131.500000	86.579
132.000000	86.577
134.000000	86.568
136.000000	86.563
138.000000	86.564
140.000000	86.567
143.000000	86.569
145.000000	86.571
147.500000	86.573
150.000000	86.569
152.500000	86.559
155.000000	86.543
157.500000	86.525
160.000000	86.509
162.500000	86.493
165.000000	86.476
167.500000	86.454
170.000000	86.427
172.500000	86.403
175.000000	86.378
177.500000	86.353
180.000000	86.330
182.500000	86.313
185.000000	86.300
187.500000	86.291
190.000000	86.286
192.500000	86.282
195.000000	86.276
197.500000	86.266
200.000000	86.256
203.000000	86.251
206.000000	86.251
209.000000	86.250
212.000000	86.229
214.000000	86.205
218.000000	86.169
220.000000	86.169
224.000000	86.181
227.000000	86.173
230.000000	86.150
233.000000	86.125
236.000000	86.107
240.000000	86.092
243.000000	86.086
247.000000	86.072
250.000000	86.053
254.000000	86.023
258.000000	85.998
262.000000	85.980
265.000000	85.967
269.000000	85.951
272.000000	85.940
276.000000	85.924
280.000000	85.906
285.000000	85.869
290.000000	85.816
295.000000	85.760
300.000000	85.707
304.000000	85.669
307.000000	85.640
311.000000	85.600
315.000000	85.557
320.000000	85.500
325.000000	85.438
330.000000	85.376
335.000000	85.320
340.000000	85.270
345.000000	85.226
350.000000	85.192
355.000000	85.173
360.000000	85.172
365.000000	85.172
370.000000	85.161
375.000000	85.144
382.000000	85.118
387.000000	85.107
395.000000	85.091
400.000000	85.071
406.000000	85.033
412.000000	84.984
418.000000	84.926
425.000000	84.851
431.000000	84.786
437.000000	84.718
444.000000	84.622
450.000000	84.518
455.000000	84.424
462.000000	84.295
468.000000	84.186
475.000000	84.040
482.000000	83.873
487.000000	83.751
494.000000	83.569
500.000000	83.394
508.000000	83.134
515.000000	82.892
522.000000	82.645
530.000000	82.377
538.000000	82.155
545.000000	82.035
552.000000	82.037
560.000000	82.219
570.000000	82.580
580.000000	82.878
590.000000	83.029
600.000000	83.066
608.000000	83.061
615.000000	83.061
622.000000	83.087
630.000000	83.159
640.000000	83.307
650.000000	83.496
660.000000	83.692
670.000000	83.865
680.000000	84.009
690.000000	84.137
700.000000	84.272
710.000000	84.418
720.000000	84.568
730.000000	84.718
740.000000	84.869
750.000000	85.022
762.000000	85.218
775.000000	85.447
788.000000	85.683
800.000000	85.880
812.000000	86.033
825.000000	86.135
838.000000	86.175
850.000000	86.172
862.000000	86.146
875.000000	86.106
885.000000	86.071
900.000000	86.016
912.000000	85.971
925.000000	85.916
938.000000	85.854
950.000000	85.792
962.000000	85.727
975.000000	85.652
988.000000	85.574
1000.000000	85.499
1015.000000	85.404
1030.000000	85.307
1044.000000	85.221
1060.000000	85.127
1075.000000	85.042
1090.000000	84.960
1106.000000	84.880
1120.000000	84.824
1138.000000	84.777
1150.000000	84.756
1172.000000	84.716
1180.000000	84.697
1206.000000	84.603
1220.000000	84.530
1241.000000	84.408
1250.000000	84.358
1265.000000	84.278
1280.000000	84.204
1315.000000	84.055
1320.000000	84.036
1340.000000	83.960
1360.000000	83.886
1380.000000	83.822
1400.000000	83.780
1430.000000	83.790
1450.000000	83.849
1475.000000	83.949
1500.000000	84.049
1525.000000	84.151
1550.000000	84.279
1575.000000	84.459
1600.000000	84.686
1625.000000	84.899
1650.000000	85.078
1675.000000	85.271
1700.000000	85.511
1725.000000	85.786
1750.000000	86.070
1775.000000	86.345
1800.000000	86.602
1825.000000	86.838
1850.000000	87.057
1875.000000	87.271
1900.000000	87.495
1925.000000	87.738
1950.000000	88.007
1975.000000	88.304
2000.000000	88.623
2030.000000	89.018
2060.000000	89.399
2090.000000	89.714
2120.000000	89.897
2140.000000	89.912
2180.000000	89.670
2200.000000	89.470
2240.000000	89.169
2270.000000	89.129
2300.000000	89.179
2330.000000	89.261
2360.000000	89.422
2400.000000	89.853
2430.000000	90.326
2470.000000	91.074
2500.000000	91.666
2540.000000	92.419
2580.000000	93.066
2620.000000	93.580
2650.000000	93.882
2690.000000	94.195
2720.000000	94.373
2760.000000	94.540
2800.000000	94.628
2850.000000	94.673
2900.000000	94.736
2950.000000	94.867
3000.000000	95.001
3040.000000	95.049
3070.000000	95.032
3110.000000	94.918
3150.000000	94.665
3200.000000	94.125
3250.000000	93.372
3300.000000	92.526
3350.000000	91.769
3400.000000	91.270
3450.000000	91.077
3500.000000	91.139
3550.000000	91.378
3600.000000	91.701
3650.000000	91.978
3700.000000	92.111
3750.000000	92.095
3820.000000	91.972
3870.000000	91.908
3950.000000	91.847
4000.000000	91.781
4060.000000	91.644
4120.000000	91.449
4180.000000	91.215
4250.000000	90.916
4310.000000	90.656
4370.000000	90.386
4440.000000	90.044
4500.000000	89.735
4550.000000	89.473
4620.000000	89.106
4680.000000	88.799
4750.000000	88.476
4820.000000	88.214
4870.000000	88.074
4940.000000	87.951
5000.000000	87.923
5080.000000	88.012
5150.000000	88.225
5220.000000	88.572
5300.000000	89.114
5380.000000	89.746
5450.000000	90.292
5520.000000	90.745
5600.000000	91.040
5700.000000	90.927
5800.000000	90.239
5900.000000	89.206
6000.000000	88.178
6080.000000	87.454
6150.000000	86.873
6220.000000	86.318
6300.000000	85.702
6400.000000	84.964
6500.000000	84.293
6600.000000	83.701
6700.000000	83.200
6800.000000	82.811
6900.000000	82.526
7000.000000	82.321
7100.000000	82.163
7200.000000	81.991
7300.000000	81.749
7400.000000	81.419
7500.000000	81.072
7620.000000	80.904
7750.000000	81.336
7880.000000	82.225
8000.000000	83.072
8120.000000	83.722
8250.000000	84.124
8380.000000	84.281
8500.000000	84.345
8620.000000	84.404
8750.000000	84.427
8850.000000	84.386
9000.000000	84.294
9120.000000	84.274
9250.000000	84.290
9380.000000	84.213
9500.000000	83.949
9620.000000	83.445
9750.000000	82.632
9880.000000	81.636
10000.000000	80.750
10150.000000	79.989
10300.000000	79.646
10440.000000	79.491
10600.000000	79.320
10750.000000	79.100
10900.000000	78.764
11060.000000	78.200
11200.000000	77.553
11380.000000	76.895
11500.000000	77.005
11720.000000	78.566
11800.000000	79.293
12060.000000	81.272
12200.000000	82.013
12410.000000	82.789
12500.000000	83.097
12650.000000	83.819
12800.000000	84.965
13150.000000	87.910
13200.000000	88.178
13400.000000	88.660
13600.000000	88.307
13800.000000	87.453
14000.000000	86.413
14300.000000	84.902
14500.000000	84.158
14750.000000	83.870
15000.000000	84.440
15250.000000	85.410
15500.000000	86.138
15750.000000	86.412
16000.000000	86.313
16250.000000	85.970
16500.000000	85.493
16750.000000	84.906
17000.000000	84.357
17250.000000	84.037
17500.000000	83.626
17750.000000	82.536
18000.000000	80.512
18250.000000	77.756
18500.000000	75.052
18750.000000	73.854
19000.000000	74.413
19250.000000	75.333
19500.000000	75.870
19750.000000	76.034
