* Measurement data measured by REW V5.31.1
* Source: Frequency response averaged data
* Format: Averaged data produced from the rms magnitudes of R Moondrop Para, R Moondrop Para, R Moondrop Para
* Dated: Jun 30, 2024 12:05:46 PM
* REW Settings:
*  C-weighting compensation: Off
*  Target level: 75.0 dB
* Note: Averaged data produced from the rms magnitudes of R Moondrop Para, R Moondrop Para, R Moondrop Para
* Measurement: RMS Average R
* Smoothing: 1/12 octave
* Frequency Step: 1/48 octave
* Start Frequency: 20.000 Hz
*
* Freq(Hz)	SPL(dB)
20.000000	69.967
20.299999	70.132
20.600000	70.310
20.900000	70.519
21.200001	70.763
21.400000	70.938
21.799999	71.284
22.000000	71.440
22.400000	71.691
22.700001	71.826
23.000000	71.927
23.299999	72.010
23.600000	72.094
24.000000	72.222
24.299999	72.330
24.700001	72.485
25.000000	72.607
25.400000	72.782
25.799999	72.977
26.200001	73.188
26.500000	73.344
26.900000	73.529
27.200001	73.642
27.600000	73.757
28.000000	73.850
28.500000	73.971
29.000000	74.121
29.500000	74.292
30.000000	74.457
30.400000	74.574
30.700001	74.651
31.100000	74.742
31.500000	74.823
32.000000	74.910
32.500000	74.981
33.000000	75.035
33.500000	75.068
34.000000	75.074
34.500000	75.057
35.000000	75.034
35.500000	75.032
36.000000	75.072
36.500000	75.155
37.000000	75.272
37.500000	75.406
38.200001	75.602
38.700001	75.743
39.500000	75.969
40.000000	76.116
40.599998	76.297
41.200001	76.491
41.799999	76.702
42.500000	76.939
43.099998	77.075
43.700001	77.097
44.400002	76.978
45.000000	76.811
45.500000	76.675
46.200001	76.535
46.799999	76.459
47.500000	76.403
48.200001	76.370
48.700001	76.361
49.400002	76.364
50.000000	76.371
50.799999	76.368
51.500000	76.349
52.200001	76.316
53.000000	76.267
53.799999	76.213
54.500000	76.168
55.200001	76.133
56.000000	76.107
57.000000	76.099
58.000000	76.112
59.000000	76.141
60.000000	76.184
60.799999	76.229
61.500000	76.276
62.200001	76.328
63.000000	76.390
64.000000	76.470
65.000000	76.550
66.000000	76.629
67.000000	76.706
68.000000	76.773
69.000000	76.827
70.000000	76.867
71.000000	76.898
72.000000	76.925
73.000000	76.948
74.000000	76.967
75.000000	76.981
76.199997	76.991
77.500000	76.995
78.800003	76.995
80.000000	76.994
81.199997	76.994
82.500000	76.998
83.800003	77.009
85.000000	77.020
86.199997	77.028
87.500000	77.029
88.500000	77.024
90.000000	77.013
91.199997	76.999
92.500000	76.979
93.800003	76.960
95.000000	76.949
96.199997	76.947
97.500000	76.952
98.800003	76.960
100.000000	76.969
101.500000	76.980
103.000000	76.993
104.400002	77.005
106.000000	77.018
107.500000	77.026
109.000000	77.026
110.599998	77.020
112.000000	77.015
113.800003	77.014
115.000000	77.014
117.199997	77.008
118.000000	77.003
120.599998	76.993
122.000000	76.999
124.099998	77.028
125.000000	77.046
126.500000	77.078
128.000000	77.106
131.500000	77.132
132.000000	77.130
134.000000	77.117
136.000000	77.106
138.000000	77.111
140.000000	77.129
143.000000	77.161
145.000000	77.171
147.500000	77.163
150.000000	77.141
152.500000	77.121
155.000000	77.102
157.500000	77.074
160.000000	77.042
162.500000	77.021
165.000000	77.022
167.500000	77.044
170.000000	77.081
172.500000	77.125
175.000000	77.166
177.500000	77.198
180.000000	77.215
182.500000	77.216
185.000000	77.211
187.500000	77.211
190.000000	77.222
192.500000	77.242
195.000000	77.265
197.500000	77.288
200.000000	77.307
203.000000	77.323
206.000000	77.334
209.000000	77.338
212.000000	77.333
214.000000	77.325
218.000000	77.299
220.000000	77.284
224.000000	77.264
227.000000	77.268
230.000000	77.293
233.000000	77.336
236.000000	77.385
240.000000	77.439
243.000000	77.465
247.000000	77.486
250.000000	77.500
254.000000	77.524
258.000000	77.555
262.000000	77.588
265.000000	77.612
269.000000	77.640
272.000000	77.656
276.000000	77.676
280.000000	77.699
285.000000	77.725
290.000000	77.733
295.000000	77.729
300.000000	77.730
304.000000	77.746
307.000000	77.766
311.000000	77.797
315.000000	77.823
320.000000	77.841
325.000000	77.835
330.000000	77.802
335.000000	77.751
340.000000	77.700
345.000000	77.669
350.000000	77.666
355.000000	77.687
360.000000	77.719
365.000000	77.750
370.000000	77.781
375.000000	77.814
382.000000	77.843
387.000000	77.834
395.000000	77.785
400.000000	77.758
406.000000	77.742
412.000000	77.742
418.000000	77.750
425.000000	77.754
431.000000	77.743
437.000000	77.716
444.000000	77.670
450.000000	77.625
455.000000	77.589
462.000000	77.546
468.000000	77.517
475.000000	77.491
482.000000	77.473
487.000000	77.468
494.000000	77.473
500.000000	77.487
508.000000	77.517
515.000000	77.548
522.000000	77.585
530.000000	77.628
538.000000	77.667
545.000000	77.696
552.000000	77.721
560.000000	77.747
570.000000	77.769
580.000000	77.770
590.000000	77.744
600.000000	77.713
608.000000	77.711
615.000000	77.737
622.000000	77.783
630.000000	77.841
640.000000	77.888
650.000000	77.894
660.000000	77.881
670.000000	77.877
680.000000	77.896
690.000000	77.938
700.000000	77.995
710.000000	78.056
720.000000	78.108
730.000000	78.143
740.000000	78.159
750.000000	78.158
762.000000	78.151
775.000000	78.155
788.000000	78.183
800.000000	78.228
812.000000	78.288
825.000000	78.369
838.000000	78.464
850.000000	78.557
862.000000	78.647
875.000000	78.730
885.000000	78.784
900.000000	78.847
912.000000	78.884
925.000000	78.911
938.000000	78.925
950.000000	78.925
962.000000	78.916
975.000000	78.898
988.000000	78.880
1000.000000	78.864
1015.000000	78.843
1030.000000	78.817
1044.000000	78.797
1060.000000	78.802
1075.000000	78.848
1090.000000	78.930
1106.000000	79.032
1120.000000	79.111
1138.000000	79.178
1150.000000	79.201
1172.000000	79.206
1180.000000	79.199
1206.000000	79.152
1220.000000	79.112
1241.000000	79.033
1250.000000	78.993
1265.000000	78.921
1280.000000	78.845
1315.000000	78.677
1320.000000	78.655
1340.000000	78.570
1360.000000	78.491
1380.000000	78.416
1400.000000	78.345
1430.000000	78.251
1450.000000	78.200
1475.000000	78.152
1500.000000	78.116
1525.000000	78.091
1550.000000	78.077
1575.000000	78.081
1600.000000	78.105
1625.000000	78.154
1650.000000	78.232
1675.000000	78.345
1700.000000	78.499
1725.000000	78.694
1750.000000	78.927
1775.000000	79.187
1800.000000	79.460
1825.000000	79.736
1850.000000	80.004
1875.000000	80.260
1900.000000	80.501
1925.000000	80.729
1950.000000	80.948
1975.000000	81.162
2000.000000	81.373
2030.000000	81.623
2060.000000	81.872
2090.000000	82.125
2120.000000	82.386
2140.000000	82.565
2180.000000	82.926
2200.000000	83.106
2240.000000	83.465
2270.000000	83.739
2300.000000	84.024
2330.000000	84.321
2360.000000	84.627
2400.000000	85.054
2430.000000	85.404
2470.000000	85.934
2500.000000	86.377
2540.000000	86.998
2580.000000	87.618
2620.000000	88.212
2650.000000	88.634
2690.000000	89.163
2720.000000	89.536
2760.000000	90.003
2800.000000	90.439
2850.000000	90.937
2900.000000	91.364
2950.000000	91.707
3000.000000	91.962
3040.000000	92.105
3070.000000	92.176
3110.000000	92.230
3150.000000	92.257
3200.000000	92.284
3250.000000	92.318
3300.000000	92.349
3350.000000	92.356
3400.000000	92.325
3450.000000	92.244
3500.000000	92.107
3550.000000	91.915
3600.000000	91.675
3650.000000	91.401
3700.000000	91.107
3750.000000	90.807
3820.000000	90.398
3870.000000	90.125
3950.000000	89.745
4000.000000	89.545
4060.000000	89.333
4120.000000	89.128
4180.000000	88.909
4250.000000	88.624
4310.000000	88.358
4370.000000	88.089
4440.000000	87.796
4500.000000	87.577
4550.000000	87.421
4620.000000	87.238
4680.000000	87.107
4750.000000	86.976
4820.000000	86.850
4870.000000	86.754
4940.000000	86.607
5000.000000	86.473
5080.000000	86.296
5150.000000	86.152
5220.000000	86.009
5300.000000	85.828
5380.000000	85.616
5450.000000	85.405
5520.000000	85.173
5600.000000	84.873
5700.000000	84.412
5800.000000	83.820
5900.000000	83.131
6000.000000	82.443
6080.000000	81.994
6150.000000	81.757
6220.000000	81.707
6300.000000	81.851
6400.000000	82.170
6500.000000	82.434
6600.000000	82.535
6700.000000	82.496
6800.000000	82.392
6900.000000	82.263
7000.000000	82.117
7100.000000	81.964
7200.000000	81.819
7300.000000	81.692
7400.000000	81.590
7500.000000	81.519
7620.000000	81.493
7750.000000	81.569
7880.000000	81.784
8000.000000	82.111
8120.000000	82.539
8250.000000	83.065
8380.000000	83.575
8500.000000	83.945
8620.000000	84.143
8750.000000	84.106
8850.000000	83.882
9000.000000	83.227
9120.000000	82.444
9250.000000	81.370
9380.000000	80.107
9500.000000	78.829
9620.000000	77.509
9750.000000	76.121
9880.000000	74.876
10000.000000	73.944
10150.000000	73.211
10300.000000	73.109
10440.000000	73.622
10600.000000	74.735
10750.000000	75.950
10900.000000	77.037
11060.000000	77.864
11200.000000	78.260
11380.000000	78.380
11500.000000	78.313
11720.000000	78.271
11800.000000	78.400
12060.000000	79.668
12200.000000	80.796
12410.000000	82.702
12500.000000	83.510
12650.000000	84.762
12800.000000	85.841
13150.000000	87.472
13200.000000	87.592
13400.000000	87.793
13600.000000	87.580
13800.000000	87.025
14000.000000	86.189
14300.000000	84.468
14500.000000	83.056
14750.000000	81.224
15000.000000	79.774
15250.000000	79.007
15500.000000	78.714
15750.000000	78.591
16000.000000	78.533
16250.000000	78.484
16500.000000	78.349
16750.000000	78.062
17000.000000	77.683
17250.000000	77.353
17500.000000	77.146
17750.000000	76.997
18000.000000	76.815
18250.000000	76.615
18500.000000	76.508
18750.000000	76.588
19000.000000	76.837
19250.000000	77.154
19500.000000	77.439
19750.000000	77.635
20000.000000	77.730
