* Measurement data measured by REW V5.20.13
* Source: Headset (USB-C to 3.5mm Headphone Jack Adapter), MICROPHONE (Master Volume), R, volume: 0.250. Timing signal peak level -29.9 dBFS, measurement signal peak level -28.5 dBFS
* Format: 256k Log Swept Sine, 1 sweep at -12.0 dBFS using an acoustic timing reference
* Dated: May 24, 2024 8:45:11 PM
* REW Settings:
*  C-weighting compensation: Off
*  Target level: 75.0 dB
* Note: new speaker Delay 0.0191 ms (6.5 mm, 0.26 in) using estimated IR delay relative to Acoustic reference played from SPEAKER R with no timing offset Clock adjustment: -38.4 ppm
* Measurement: Ouroboros Speaker 3
* Smoothing: 1/12 octave
* Frequency Step: 1/48 octave
* Start Frequency: 20.000 Hz
*
* Freq(Hz)	SPL(dB)	Phase(degrees)
20.000000	77.877	102.0168
20.299999	77.980	100.2411
20.600000	78.066	98.4173
20.900000	78.126	96.6197
21.200001	78.164	94.9701
21.400000	78.187	94.0037
21.799999	78.257	92.3411
22.000000	78.314	91.5698
22.400000	78.477	89.8805
22.700001	78.615	88.2755
23.000000	78.722	86.3121
23.299999	78.761	84.1725
23.600000	78.722	82.1614
24.000000	78.573	80.2112
24.299999	78.454	79.5524
24.700001	78.396	79.6037
25.000000	78.486	79.8832
25.400000	78.768	79.8076
25.799999	79.121	78.6069
26.200001	79.413	76.2768
26.500000	79.547	74.1041
26.900000	79.609	71.1322
27.200001	79.587	69.1247
27.600000	79.507	66.9166
28.000000	79.413	65.2250
28.500000	79.317	63.6450
29.000000	79.267	62.4180
29.500000	79.269	61.3248
30.000000	79.309	60.1401
30.400000	79.344	59.0522
30.700001	79.361	58.1784
31.100000	79.365	57.0270
31.500000	79.352	55.9750
32.000000	79.331	54.8345
32.500000	79.316	53.7958
33.000000	79.301	52.7531
33.500000	79.271	51.7125
34.000000	79.224	50.7513
34.500000	79.169	49.9173
35.000000	79.115	49.2000
35.500000	79.072	48.5585
36.000000	79.048	47.9254
36.500000	79.042	47.2007
37.000000	79.039	46.3018
37.500000	79.018	45.2622
38.200001	78.940	43.8911
38.700001	78.870	43.1803
39.500000	78.809	42.4293
40.000000	78.807	41.9735
40.599998	78.812	41.3283
41.200001	78.800	40.7029
41.799999	78.775	40.2828
42.500000	78.764	40.1069
43.099998	78.793	40.0535
43.700001	78.850	39.8678
44.400002	78.915	39.3782
45.000000	78.951	38.8146
45.500000	78.972	38.3259
46.200001	79.007	37.5847
46.799999	79.046	36.7590
47.500000	79.073	35.4677
48.200001	79.048	33.9700
48.700001	78.993	32.9412
49.400002	78.883	31.7319
50.000000	78.779	30.9305
50.799999	78.639	30.1188
51.500000	78.515	29.6123
52.200001	78.395	29.2851
53.000000	78.271	29.0315
53.799999	78.157	28.7362
54.500000	78.041	28.3848
55.200001	77.886	28.0970
56.000000	77.668	28.2694
57.000000	77.468	29.4828
58.000000	77.457	30.8439
59.000000	77.528	31.7770
60.000000	77.632	32.7408
60.799999	77.758	33.5007
61.500000	77.879	34.0120
62.200001	77.984	34.3887
63.000000	78.070	34.7897
64.000000	78.140	35.4861
65.000000	78.222	36.4102
66.000000	78.342	37.3174
67.000000	78.503	38.0623
68.000000	78.706	38.5161
69.000000	78.925	38.5559
70.000000	79.127	38.2881
71.000000	79.303	37.9085
72.000000	79.458	37.5600
73.000000	79.609	37.3317
74.000000	79.776	37.1866
75.000000	79.967	37.0341
76.199997	80.231	36.7285
77.500000	80.548	36.1001
78.800003	80.868	35.1192
80.000000	81.148	33.9890
81.199997	81.414	32.6953
82.500000	81.683	31.0688
83.800003	81.921	29.1727
85.000000	82.107	27.2124
86.199997	82.263	25.1108
87.500000	82.399	22.7097
88.500000	82.480	20.7979
90.000000	82.559	17.8793
91.199997	82.584	15.5347
92.500000	82.569	13.0273
93.800003	82.513	10.6049
95.000000	82.429	8.4766
96.199997	82.317	6.4739
97.500000	82.166	4.4761
98.800003	81.989	2.6927
100.000000	81.808	1.2538
101.500000	81.567	-0.2653
103.000000	81.317	-1.4673
104.400002	81.083	-2.2810
106.000000	80.830	-2.8439
107.500000	80.619	-3.0637
109.000000	80.443	-3.0788
110.599998	80.306	-3.0035
112.000000	80.235	-2.9677
113.800003	80.206	-3.0596
115.000000	80.216	-3.2080
117.199997	80.267	-3.6616
118.000000	80.286	-3.9174
120.599998	80.277	-5.2597
122.000000	80.206	-6.2129
124.099998	80.045	-7.6754
125.000000	79.972	-8.2880
126.500000	79.852	-9.2724
128.000000	79.733	-10.1827
131.500000	79.417	-11.8826
132.000000	79.365	-12.0759
134.000000	79.150	-12.7479
136.000000	78.928	-13.2963
138.000000	78.709	-13.7338
140.000000	78.488	-14.0383
143.000000	78.148	-14.1981
145.000000	77.922	-14.0940
147.500000	77.654	-13.7282
150.000000	77.421	-13.1422
152.500000	77.227	-12.4111
155.000000	77.063	-11.6188
157.500000	76.918	-10.8252
160.000000	76.792	-10.0438
162.500000	76.687	-9.2463
165.000000	76.600	-8.4125
167.500000	76.523	-7.5558
170.000000	76.455	-6.6942
172.500000	76.395	-5.8272
175.000000	76.348	-4.9401
177.500000	76.323	-4.0433
180.000000	76.323	-3.1801
182.500000	76.347	-2.4138
185.000000	76.386	-1.8084
187.500000	76.429	-1.3950
190.000000	76.461	-1.1416
192.500000	76.472	-0.9641
195.000000	76.463	-0.7650
197.500000	76.436	-0.4634
200.000000	76.404	-0.0046
203.000000	76.376	0.7787
206.000000	76.384	1.7629
209.000000	76.447	2.8028
212.000000	76.566	3.7095
214.000000	76.667	4.1613
218.000000	76.887	4.6094
220.000000	76.993	4.6179
224.000000	77.174	4.3192
227.000000	77.280	3.9252
230.000000	77.362	3.4653
233.000000	77.426	2.9783
236.000000	77.475	2.4812
240.000000	77.519	1.8262
243.000000	77.538	1.3612
247.000000	77.546	0.7911
250.000000	77.541	0.4059
254.000000	77.525	-0.0390
258.000000	77.503	-0.3930
262.000000	77.478	-0.6564
265.000000	77.461	-0.8005
269.000000	77.443	-0.9371
272.000000	77.436	-1.0160
276.000000	77.438	-1.1263
280.000000	77.449	-1.2857
285.000000	77.468	-1.5996
290.000000	77.478	-2.0352
295.000000	77.469	-2.5351
300.000000	77.440	-3.0284
304.000000	77.407	-3.3840
307.000000	77.378	-3.6220
311.000000	77.334	-3.9031
315.000000	77.288	-4.1465
320.000000	77.227	-4.3989
325.000000	77.164	-4.5923
330.000000	77.100	-4.7326
335.000000	77.039	-4.8260
340.000000	76.979	-4.8761
345.000000	76.922	-4.8933
350.000000	76.869	-4.8863
355.000000	76.818	-4.8582
360.000000	76.769	-4.8124
365.000000	76.722	-4.7543
370.000000	76.677	-4.6865
375.000000	76.636	-4.6101
382.000000	76.581	-4.4928
387.000000	76.542	-4.4022
395.000000	76.480	-4.2424
400.000000	76.443	-4.1305
406.000000	76.401	-3.9811
412.000000	76.363	-3.8176
418.000000	76.329	-3.6520
425.000000	76.290	-3.4749
431.000000	76.258	-3.3406
437.000000	76.226	-3.2184
444.000000	76.186	-3.0812
450.000000	76.148	-2.9576
455.000000	76.114	-2.8430
462.000000	76.065	-2.6558
468.000000	76.024	-2.4689
475.000000	75.976	-2.2249
482.000000	75.929	-1.9567
487.000000	75.896	-1.7495
494.000000	75.851	-1.4360
500.000000	75.813	-1.1467
508.000000	75.765	-0.7335
515.000000	75.726	-0.3440
522.000000	75.689	0.0786
530.000000	75.652	0.6034
538.000000	75.621	1.1619
545.000000	75.600	1.6674
552.000000	75.586	2.1841
560.000000	75.578	2.7874
570.000000	75.580	3.5488
580.000000	75.594	4.2980
590.000000	75.619	5.0188
600.000000	75.655	5.7040
608.000000	75.689	6.2225
615.000000	75.725	6.6469
622.000000	75.764	7.0366
630.000000	75.812	7.4361
640.000000	75.875	7.8650
650.000000	75.939	8.2091
660.000000	75.995	8.4744
670.000000	76.040	8.6939
680.000000	76.073	8.9105
690.000000	76.100	9.1521
700.000000	76.125	9.4318
710.000000	76.149	9.7524
720.000000	76.176	10.1025
730.000000	76.204	10.4667
740.000000	76.234	10.8418
750.000000	76.266	11.2338
762.000000	76.309	11.7310
775.000000	76.365	12.2911
788.000000	76.429	12.8401
800.000000	76.491	13.3220
812.000000	76.555	13.8088
825.000000	76.632	14.3667
838.000000	76.724	14.9203
850.000000	76.819	15.3848
862.000000	76.920	15.7886
875.000000	77.034	16.1577
885.000000	77.124	16.3975
900.000000	77.256	16.6932
912.000000	77.360	16.8787
925.000000	77.470	17.0372
938.000000	77.577	17.1665
950.000000	77.674	17.2717
962.000000	77.769	17.3691
975.000000	77.871	17.4677
988.000000	77.972	17.5605
1000.000000	78.066	17.6428
1015.000000	78.190	17.7355
1030.000000	78.322	17.7892
1044.000000	78.452	17.7617
1060.000000	78.600	17.5933
1075.000000	78.725	17.2952
1090.000000	78.826	16.9163
1106.000000	78.904	16.5446
1120.000000	78.959	16.3312
1138.000000	79.026	16.2231
1150.000000	79.074	16.2230
1172.000000	79.173	16.3099
1180.000000	79.213	16.3605
1206.000000	79.362	16.5551
1220.000000	79.452	16.6614
1241.000000	79.600	16.7991
1250.000000	79.667	16.8454
1265.000000	79.782	16.9022
1280.000000	79.902	16.9318
1315.000000	80.196	16.8948
1320.000000	80.239	16.8776
1340.000000	80.416	16.7775
1360.000000	80.599	16.6187
1380.000000	80.786	16.3903
1400.000000	80.978	16.0842
1430.000000	81.270	15.4612
1450.000000	81.463	14.9304
1475.000000	81.697	14.1455
1500.000000	81.922	13.2417
1525.000000	82.135	12.2410
1550.000000	82.336	11.1658
1575.000000	82.525	10.0297
1600.000000	82.702	8.8364
1625.000000	82.868	7.5883
1650.000000	83.022	6.2924
1675.000000	83.162	4.9636
1700.000000	83.289	3.6187
1725.000000	83.402	2.2664
1750.000000	83.503	0.9105
1775.000000	83.593	-0.4437
1800.000000	83.672	-1.7864
1825.000000	83.740	-3.1069
1850.000000	83.797	-4.3977
1875.000000	83.846	-5.6549
1900.000000	83.887	-6.8761
1925.000000	83.923	-8.0588
1950.000000	83.954	-9.2032
1975.000000	83.980	-10.3122
2000.000000	84.002	-11.3881
2030.000000	84.022	-12.6343
2060.000000	84.037	-13.8231
2090.000000	84.047	-14.9431
2120.000000	84.055	-15.9889
2140.000000	84.060	-16.6461
2180.000000	84.073	-17.8720
2200.000000	84.081	-18.4431
2240.000000	84.104	-19.5086
2270.000000	84.129	-20.2513
2300.000000	84.162	-20.9594
2330.000000	84.202	-21.6432
2360.000000	84.250	-22.3091
2400.000000	84.325	-23.1769
2430.000000	84.392	-23.8202
2470.000000	84.496	-24.6830
2500.000000	84.586	-25.3456
2540.000000	84.722	-26.2692
2580.000000	84.876	-27.2650
2620.000000	85.046	-28.3641
2650.000000	85.182	-29.2742
2690.000000	85.375	-30.6212
2720.000000	85.523	-31.7406
2760.000000	85.724	-33.3888
2800.000000	85.924	-35.2233
2850.000000	86.165	-37.7851
2900.000000	86.389	-40.6426
2950.000000	86.587	-43.7814
3000.000000	86.749	-47.1761
3040.000000	86.847	-50.0507
3070.000000	86.901	-52.2825
3110.000000	86.946	-55.3378
3150.000000	86.957	-58.4624
3200.000000	86.922	-62.4317
3250.000000	86.824	-66.4166
3300.000000	86.661	-70.3261
3350.000000	86.432	-74.0472
3400.000000	86.146	-77.4659
3450.000000	85.815	-80.4949
3500.000000	85.457	-83.1095
3550.000000	85.085	-85.3463
3600.000000	84.707	-87.2423
3650.000000	84.325	-88.7845
3700.000000	83.945	-89.9349
3750.000000	83.583	-90.6887
3820.000000	83.140	-91.2017
3870.000000	82.885	-91.3641
3950.000000	82.562	-91.6255
4000.000000	82.385	-91.8015
4060.000000	82.184	-91.8868
4120.000000	82.007	-91.7413
4180.000000	81.872	-91.3687
4250.000000	81.787	-90.7224
4310.000000	81.788	-90.0725
4370.000000	81.864	-89.4281
4440.000000	82.046	-88.8023
4500.000000	82.282	-88.4567
4550.000000	82.534	-88.3473
4620.000000	82.976	-88.5469
4680.000000	83.439	-89.1598
4750.000000	84.071	-90.5920
4820.000000	84.778	-93.0477
4870.000000	85.306	-95.5848
4940.000000	86.036	-100.4504
5000.000000	86.599	-105.9781
5080.000000	87.164	-115.2856
5150.000000	87.403	-124.8661
5220.000000	87.355	-135.0568
5300.000000	86.948	-146.3557
5380.000000	86.227	-156.3178
5450.000000	85.422	-163.6037
5520.000000	84.533	-169.6449
5600.000000	83.484	-175.3993
5700.000000	82.184	178.4361
5800.000000	80.882	172.8395
5900.000000	79.508	167.7245
6000.000000	77.975	163.6434
6080.000000	76.585	161.9089
6150.000000	75.241	162.1890
6220.000000	73.807	164.6505
6300.000000	72.161	170.3657
6400.000000	70.434	-178.8914
6500.000000	69.597	-166.4898
6600.000000	69.834	-155.3244
6700.000000	70.769	-147.3521
6800.000000	71.944	-143.3191
6900.000000	73.065	-143.2103
7000.000000	73.950	-146.5272
7100.000000	74.488	-152.2200
7200.000000	74.652	-158.7506
7300.000000	74.511	-164.6595
7400.000000	74.207	-169.2422
7500.000000	73.882	-172.6750
7620.000000	73.583	-176.1790
7750.000000	73.365	179.5989
7880.000000	73.122	174.2515
8000.000000	72.722	168.6467
8120.000000	72.068	163.5182
8250.000000	71.088	160.1509
8380.000000	70.041	160.4808
8500.000000	69.510	164.0932
8620.000000	69.983	168.8010
8750.000000	71.498	170.3342
8850.000000	72.739	165.6855
9000.000000	73.785	148.1989
9120.000000	73.613	129.7651
9250.000000	72.520	111.5908
9380.000000	70.823	97.4755
9500.000000	69.035	86.7834
9620.000000	67.237	76.2078
9750.000000	65.365	62.9125
9880.000000	63.578	46.5087
10000.000000	62.092	28.2682
10150.000000	60.981	1.8370
10300.000000	61.509	-26.6739
10440.000000	63.277	-52.9875
10600.000000	65.665	-81.7869
10750.000000	67.527	-108.5607
10900.000000	68.668	-135.8005
11060.000000	68.938	-163.4335
11200.000000	68.432	176.5897
11380.000000	67.121	159.0988
11500.000000	66.131	151.8989
11720.000000	64.732	143.2615
11800.000000	64.420	140.4342
12060.000000	63.835	129.7095
12200.000000	63.584	122.8237
12410.000000	63.142	111.2965
12500.000000	62.922	105.8706
12650.000000	62.492	96.0918
12800.000000	61.891	86.0245
13150.000000	59.391	77.0591
13200.000000	59.028	78.6925
13400.000000	58.538	86.9023
13600.000000	59.514	86.0667
13800.000000	60.644	72.7949
14000.000000	61.436	52.9023
14300.000000	62.444	19.9144
14500.000000	63.413	-2.9415
14750.000000	65.004	-34.3322
15000.000000	66.516	-70.9457
15250.000000	67.382	-112.1641
15500.000000	67.314	-153.5515
15750.000000	66.362	170.3895
16000.000000	64.849	142.1975
16250.000000	63.228	120.4990
16500.000000	61.825	102.5480
16750.000000	60.738	86.4500
17000.000000	59.957	70.8208
17250.000000	59.370	54.5009
17500.000000	58.763	37.4102
17750.000000	57.947	21.1233
18000.000000	56.976	8.2814
18250.000000	56.461	-0.9319
18500.000000	57.004	-11.1639
18750.000000	58.211	-27.2354
19000.000000	59.454	-50.4214
19250.000000	60.423	-79.6927
19500.000000	60.981	-112.1559
19750.000000	61.135	-141.8691
