* Measurement data measured by REW V5.20.13
* Source: Headset (USB-C to 3.5mm Headphone Jack Adapter), MICROPHONE (Master Volume), R, volume: 0.250. Timing signal peak level -31.4 dBFS, measurement signal peak level -30.2 dBFS
* Format: 256k Log Swept Sine, 1 sweep at -12.0 dBFS using an acoustic timing reference
* Dated: May 24, 2024 8:46:52 PM
* REW Settings:
*  C-weighting compensation: Off
*  Target level: 75.0 dB
* Note: new speaker Delay -0.0413 ms (-14 mm, -0.56 in) using estimated IR delay relative to Acoustic reference played from SPEAKER R with no timing offset Clock adjustment: -39.4 ppm
* Measurement: Ouroboros Speaker 2
* Smoothing: 1/12 octave
* Frequency Step: 1/48 octave
* Start Frequency: 20.000 Hz
*
* Freq(Hz)	SPL(dB)	Phase(degrees)
20.000000	77.670	94.3533
20.299999	77.745	92.5404
20.600000	77.763	90.8400
20.900000	77.739	89.5247
21.200001	77.723	88.7509
21.400000	77.750	88.4409
21.799999	77.910	87.8480
22.000000	78.031	87.3136
22.400000	78.268	85.3664
22.700001	78.358	83.2541
23.000000	78.319	81.0821
23.299999	78.164	79.4959
23.600000	77.964	78.8747
24.000000	77.795	79.5400
24.299999	77.857	80.4990
24.700001	78.189	81.0990
25.000000	78.502	80.3665
25.400000	78.817	77.7823
25.799999	78.899	74.4159
26.200001	78.776	71.6847
26.500000	78.641	70.5421
26.900000	78.546	70.0942
27.200001	78.606	70.0421
27.600000	78.847	69.5306
28.000000	79.153	67.9429
28.500000	79.447	64.5787
29.000000	79.556	60.6418
29.500000	79.500	57.0118
30.000000	79.335	54.1893
30.400000	79.162	52.6728
30.700001	79.033	51.9985
31.100000	78.899	51.6320
31.500000	78.841	51.6257
32.000000	78.883	51.5571
32.500000	78.980	50.9128
33.000000	79.032	49.6673
33.500000	78.990	48.2188
34.000000	78.868	46.9740
34.500000	78.709	46.0359
35.000000	78.535	45.3049
35.500000	78.347	44.7498
36.000000	78.154	44.4864
36.500000	77.993	44.5622
37.000000	77.909	44.7539
37.500000	77.901	44.7116
38.200001	77.926	44.0347
38.700001	77.924	43.3939
39.500000	77.929	42.6856
40.000000	77.967	42.3600
40.599998	78.033	41.9351
41.200001	78.102	41.5341
41.799999	78.173	41.1971
42.500000	78.246	40.7961
43.099998	78.279	40.5656
43.700001	78.312	40.6387
44.400002	78.415	40.8386
45.000000	78.539	40.6276
45.500000	78.619	40.1390
46.200001	78.677	39.3617
46.799999	78.710	38.8291
47.500000	78.760	38.2683
48.200001	78.822	37.7267
48.700001	78.882	37.3293
49.400002	78.984	36.4961
50.000000	79.032	35.3624
50.799999	78.951	33.7435
51.500000	78.781	32.8880
52.200001	78.615	32.4834
53.000000	78.454	31.9461
53.799999	78.259	31.2955
54.500000	78.070	31.0583
55.200001	77.944	31.1839
56.000000	77.929	31.2831
57.000000	78.029	30.8755
58.000000	78.172	30.2635
59.000000	78.301	29.6908
60.000000	78.329	29.7327
60.799999	78.335	30.7548
61.500000	78.406	32.0795
62.200001	78.533	33.2080
63.000000	78.667	33.9071
64.000000	78.744	34.2671
65.000000	78.785	34.5882
66.000000	78.882	34.7077
67.000000	79.037	34.3434
68.000000	79.212	33.5759
69.000000	79.380	32.7145
70.000000	79.539	32.0474
71.000000	79.703	31.6428
72.000000	79.875	31.3099
73.000000	80.031	30.8341
74.000000	80.152	30.2130
75.000000	80.249	29.5411
76.199997	80.371	28.6528
77.500000	80.523	27.4912
78.800003	80.689	26.1921
80.000000	80.851	24.9379
81.199997	81.011	23.5875
82.500000	81.162	21.9871
83.800003	81.285	20.2177
85.000000	81.367	18.4124
86.199997	81.417	16.4568
87.500000	81.427	14.2418
88.500000	81.404	12.5372
90.000000	81.318	10.0605
91.199997	81.205	8.1990
92.500000	81.039	6.3693
93.800003	80.835	4.8055
95.000000	80.624	3.6561
96.199997	80.402	2.8293
97.500000	80.167	2.3086
98.800003	79.950	2.1456
100.000000	79.776	2.2573
101.500000	79.603	2.6480
103.000000	79.486	3.1779
104.400002	79.432	3.6532
106.000000	79.427	4.0200
107.500000	79.458	4.1154
109.000000	79.507	3.9767
110.599998	79.563	3.6241
112.000000	79.614	3.1800
113.800003	79.690	2.4077
115.000000	79.747	1.7361
117.199997	79.846	0.1725
118.000000	79.873	-0.5115
120.599998	79.854	-3.0597
122.000000	79.763	-4.4031
124.099998	79.564	-6.2054
125.000000	79.465	-6.9178
126.500000	79.288	-8.0125
128.000000	79.097	-8.9573
131.500000	78.614	-10.5770
132.000000	78.541	-10.7567
134.000000	78.254	-11.3846
136.000000	77.973	-11.8300
138.000000	77.704	-11.9066
140.000000	77.461	-11.5298
143.000000	77.143	-10.5720
145.000000	76.938	-9.8741
147.500000	76.693	-8.9322
150.000000	76.480	-7.8682
152.500000	76.308	-6.7225
155.000000	76.171	-5.6016
157.500000	76.056	-4.5391
160.000000	75.955	-3.4606
162.500000	75.867	-2.2635
165.000000	75.801	-0.9432
167.500000	75.763	0.4088
170.000000	75.759	1.6927
172.500000	75.788	2.8384
175.000000	75.844	3.8287
177.500000	75.918	4.6792
180.000000	76.001	5.3842
182.500000	76.086	5.9290
185.000000	76.166	6.3260
187.500000	76.236	6.6137
190.000000	76.297	6.8355
192.500000	76.350	7.0265
195.000000	76.398	7.2062
197.500000	76.443	7.3766
200.000000	76.485	7.5325
203.000000	76.533	7.7024
206.000000	76.580	7.8658
209.000000	76.630	8.0210
212.000000	76.687	8.1337
214.000000	76.727	8.1625
218.000000	76.800	8.0894
220.000000	76.829	8.0048
224.000000	76.868	7.8151
227.000000	76.887	7.6959
230.000000	76.905	7.6025
233.000000	76.924	7.5078
236.000000	76.943	7.3820
240.000000	76.960	7.1752
243.000000	76.962	7.0267
247.000000	76.954	6.8670
250.000000	76.943	6.7822
254.000000	76.927	6.7230
258.000000	76.913	6.7170
262.000000	76.901	6.7413
265.000000	76.894	6.7673
269.000000	76.887	6.8050
272.000000	76.884	6.8344
276.000000	76.882	6.8680
280.000000	76.883	6.8814
285.000000	76.885	6.8524
290.000000	76.882	6.7725
295.000000	76.871	6.6660
300.000000	76.849	6.5651
304.000000	76.825	6.5092
307.000000	76.803	6.4886
311.000000	76.771	6.4944
315.000000	76.739	6.5444
320.000000	76.700	6.6672
325.000000	76.665	6.8356
330.000000	76.636	7.0295
335.000000	76.614	7.2346
340.000000	76.597	7.4335
345.000000	76.584	7.6183
350.000000	76.573	7.7911
355.000000	76.562	7.9548
360.000000	76.551	8.1148
365.000000	76.540	8.2770
370.000000	76.530	8.4421
375.000000	76.522	8.6029
382.000000	76.514	8.7941
387.000000	76.510	8.8933
395.000000	76.499	8.9927
400.000000	76.488	9.0353
406.000000	76.469	9.0818
412.000000	76.443	9.1261
418.000000	76.410	9.1714
425.000000	76.362	9.2416
431.000000	76.314	9.3368
437.000000	76.261	9.4841
444.000000	76.196	9.7376
450.000000	76.140	10.0254
455.000000	76.095	10.3095
462.000000	76.037	10.7601
468.000000	75.992	11.1797
475.000000	75.945	11.6941
482.000000	75.904	12.2349
487.000000	75.879	12.6385
494.000000	75.849	13.2244
500.000000	75.830	13.7374
508.000000	75.811	14.4159
515.000000	75.801	14.9893
522.000000	75.794	15.5400
530.000000	75.788	16.1511
538.000000	75.784	16.7566
545.000000	75.782	17.2842
552.000000	75.781	17.8071
560.000000	75.781	18.3977
570.000000	75.781	19.1324
580.000000	75.778	19.8823
590.000000	75.776	20.6711
600.000000	75.777	21.5145
608.000000	75.784	22.2288
615.000000	75.795	22.8788
622.000000	75.812	23.5459
630.000000	75.840	24.3156
640.000000	75.890	25.2618
650.000000	75.954	26.1619
660.000000	76.029	26.9981
670.000000	76.107	27.7604
680.000000	76.185	28.4453
690.000000	76.261	29.0749
700.000000	76.335	29.6826
710.000000	76.409	30.2889
720.000000	76.486	30.8943
730.000000	76.569	31.4870
740.000000	76.657	32.0549
750.000000	76.747	32.5884
762.000000	76.857	33.1747
775.000000	76.979	33.7458
788.000000	77.100	34.2565
800.000000	77.213	34.6777
812.000000	77.325	35.0552
825.000000	77.446	35.4211
838.000000	77.568	35.7364
850.000000	77.681	35.9672
862.000000	77.793	36.1263
875.000000	77.908	36.2093
885.000000	77.990	36.2104
900.000000	78.099	36.1210
912.000000	78.168	35.9924
925.000000	78.222	35.8370
938.000000	78.253	35.7172
950.000000	78.265	35.6816
962.000000	78.263	35.7552
975.000000	78.253	35.9964
988.000000	78.247	36.4122
1000.000000	78.254	36.9114
1015.000000	78.285	37.6068
1030.000000	78.335	38.3076
1044.000000	78.395	38.9347
1060.000000	78.471	39.6178
1075.000000	78.548	40.2377
1090.000000	78.629	40.8452
1106.000000	78.719	41.4819
1120.000000	78.801	42.0339
1138.000000	78.912	42.7400
1150.000000	78.988	43.2105
1172.000000	79.136	44.0979
1180.000000	79.193	44.4355
1206.000000	79.403	45.5742
1220.000000	79.535	46.1817
1241.000000	79.763	47.0037
1250.000000	79.870	47.2958
1265.000000	80.057	47.6698
1280.000000	80.246	47.8872
1315.000000	80.656	47.8927
1320.000000	80.709	47.8567
1340.000000	80.911	47.6706
1360.000000	81.097	47.4487
1380.000000	81.273	47.2085
1400.000000	81.441	46.9544
1430.000000	81.681	46.5510
1450.000000	81.837	46.2713
1475.000000	82.031	45.8968
1500.000000	82.226	45.4547
1525.000000	82.418	44.9073
1550.000000	82.601	44.2435
1575.000000	82.768	43.4775
1600.000000	82.918	42.6391
1625.000000	83.050	41.7604
1650.000000	83.163	40.8651
1675.000000	83.259	39.9681
1700.000000	83.340	39.0768
1725.000000	83.407	38.1960
1750.000000	83.459	37.3329
1775.000000	83.497	36.4995
1800.000000	83.521	35.7115
1825.000000	83.533	34.9849
1850.000000	83.535	34.3303
1875.000000	83.529	33.7514
1900.000000	83.520	33.2455
1925.000000	83.507	32.8043
1950.000000	83.493	32.4176
1975.000000	83.476	32.0799
2000.000000	83.457	31.7931
2030.000000	83.432	31.5252
2060.000000	83.406	31.3457
2090.000000	83.381	31.2517
2120.000000	83.361	31.2363
2140.000000	83.351	31.2654
2180.000000	83.340	31.4058
2200.000000	83.340	31.5119
2240.000000	83.349	31.7850
2270.000000	83.366	32.0333
2300.000000	83.392	32.3088
2330.000000	83.427	32.6040
2360.000000	83.473	32.9124
2400.000000	83.549	33.3343
2430.000000	83.618	33.6482
2470.000000	83.729	34.0424
2500.000000	83.825	34.3039
2540.000000	83.971	34.5800
2580.000000	84.132	34.7451
2620.000000	84.306	34.7764
2650.000000	84.440	34.7026
2690.000000	84.621	34.4697
2720.000000	84.755	34.1961
2760.000000	84.927	33.7122
2800.000000	85.088	33.1170
2850.000000	85.271	32.2808
2900.000000	85.437	31.4336
2950.000000	85.603	30.6313
3000.000000	85.790	29.8189
3040.000000	85.959	29.0596
3070.000000	86.095	28.3727
3110.000000	86.281	27.2538
3150.000000	86.461	25.8718
3200.000000	86.663	23.7562
3250.000000	86.816	21.2366
3300.000000	86.902	18.4078
3350.000000	86.907	15.4246
3400.000000	86.829	12.4595
3450.000000	86.676	9.6548
3500.000000	86.458	7.1105
3550.000000	86.186	4.9034
3600.000000	85.874	3.0867
3650.000000	85.537	1.6737
3700.000000	85.187	0.6476
3750.000000	84.834	-0.0178
3820.000000	84.351	-0.3983
3870.000000	84.021	-0.3157
3950.000000	83.535	0.3633
4000.000000	83.263	1.0923
4060.000000	82.980	2.2181
4120.000000	82.751	3.5330
4180.000000	82.577	4.9427
4250.000000	82.437	6.6209
4310.000000	82.365	8.0526
4370.000000	82.335	9.4595
4440.000000	82.354	11.0322
4500.000000	82.416	12.2775
4550.000000	82.497	13.2155
4620.000000	82.652	14.3501
4680.000000	82.821	15.1425
4750.000000	83.061	15.8301
4820.000000	83.351	16.2045
4870.000000	83.590	16.2258
4940.000000	83.965	15.8083
5000.000000	84.313	14.9268
5080.000000	84.786	12.8138
5150.000000	85.168	9.9560
5220.000000	85.471	6.1364
5300.000000	85.669	0.7726
5380.000000	85.664	-5.2371
5450.000000	85.481	-10.5797
5520.000000	85.141	-15.6184
5600.000000	84.593	-20.6763
5700.000000	83.742	-25.7194
5800.000000	82.787	-29.4150
5900.000000	81.783	-32.0370
6000.000000	80.739	-33.7961
6080.000000	79.858	-34.5183
6150.000000	79.041	-34.4496
6220.000000	78.183	-33.4907
6300.000000	77.187	-31.0628
6400.000000	76.035	-25.9822
6500.000000	75.192	-19.2750
6600.000000	74.822	-12.2496
6700.000000	74.901	-6.2844
6800.000000	75.247	-2.3077
6900.000000	75.644	-0.5817
7000.000000	75.937	-0.7148
7100.000000	76.059	-1.9022
7200.000000	76.026	-3.3592
7300.000000	75.900	-4.6954
7400.000000	75.734	-5.9746
7500.000000	75.543	-7.4691
7620.000000	75.232	-9.7544
7750.000000	74.704	-12.4636
7880.000000	73.917	-14.3142
8000.000000	73.006	-14.1830
8120.000000	72.062	-11.8419
8250.000000	71.241	-7.3326
8380.000000	70.840	-2.0426
8500.000000	70.913	2.3022
8620.000000	71.362	5.0258
8750.000000	72.099	4.7947
8850.000000	72.653	1.5092
9000.000000	73.063	-8.6831
9120.000000	72.763	-19.3727
9250.000000	71.703	-29.5668
9380.000000	69.981	-35.1035
9500.000000	68.009	-35.2714
9620.000000	65.918	-31.6475
9750.000000	63.827	-25.4192
9880.000000	62.161	-18.8201
10000.000000	61.070	-13.7664
10150.000000	60.227	-10.6198
10300.000000	59.802	-13.5893
10440.000000	59.710	-24.8442
10600.000000	60.188	-50.8196
10750.000000	61.461	-87.7641
10900.000000	63.196	-131.3798
11060.000000	64.861	-175.4280
11200.000000	65.925	154.0845
11380.000000	66.891	127.3866
11500.000000	67.430	115.5020
11720.000000	68.357	99.5986
11800.000000	68.642	94.3643
12060.000000	68.988	77.0440
12200.000000	68.661	68.9702
12410.000000	67.663	62.5032
12500.000000	67.248	62.0923
12650.000000	66.945	63.3420
12800.000000	67.334	64.7682
13150.000000	69.711	57.4464
13200.000000	70.048	54.6187
13400.000000	71.086	38.7405
13600.000000	71.445	17.0586
13800.000000	71.024	-7.2593
14000.000000	69.864	-30.9559
14300.000000	67.036	-60.9520
14500.000000	64.739	-76.5089
14750.000000	62.190	-93.5629
15000.000000	61.185	-114.5107
15250.000000	61.389	-144.3816
15500.000000	61.308	-179.5170
15750.000000	60.360	149.0941
16000.000000	58.746	127.3110
16250.000000	56.945	116.0676
16500.000000	55.744	114.7703
16750.000000	56.289	119.4590
17000.000000	58.110	120.2130
17250.000000	59.630	110.2087
17500.000000	60.247	92.9120
17750.000000	60.113	75.5068
18000.000000	59.679	61.5170
18250.000000	59.431	50.4487
18500.000000	59.712	40.2332
18750.000000	60.565	28.3103
19000.000000	61.697	12.2468
19250.000000	62.747	-8.7982
19500.000000	63.514	-33.0182
19750.000000	63.951	-55.7163
