* Measurement data measured by REW V5.20.13
* Source: Frequency Response Averaged data
* Format: Averaged data produced from the rms magnitudes of Ouroboros R, Ouroboros R, Ouroboros R, Ouroboros R, Ouroboros R
* Dated: Mar 13, 2024 9:35:01 PM
* REW Settings:
*  C-weighting compensation: Off
*  Target level: 75.0 dB
* Note: Averaged data produced from the rms magnitudes of Ouroboros R, Ouroboros R, Ouroboros R, Ouroboros R, Ouroboros R
* Measurement: RMS Average R
* Smoothing: 1/12 octave
* Frequency Step: 1/48 octave
* Start Frequency: 20.000 Hz
*
* Freq(Hz)	SPL(dB)
20.000000	74.710
20.299999	74.872
20.600000	75.029
20.900000	75.182
21.200001	75.331
21.400000	75.427
21.799999	75.617
22.000000	75.711
22.400000	75.902
22.700001	76.051
23.000000	76.203
23.299999	76.357
23.600000	76.507
24.000000	76.692
24.299999	76.815
24.700001	76.959
25.000000	77.056
25.400000	77.176
25.799999	77.293
26.200001	77.406
26.500000	77.488
26.900000	77.590
27.200001	77.662
27.600000	77.753
28.000000	77.842
28.500000	77.954
29.000000	78.063
29.500000	78.164
30.000000	78.254
30.400000	78.322
30.700001	78.374
31.100000	78.445
31.500000	78.520
32.000000	78.613
32.500000	78.696
33.000000	78.759
33.500000	78.805
34.000000	78.840
34.500000	78.872
35.000000	78.905
35.500000	78.935
36.000000	78.959
36.500000	78.976
37.000000	78.986
37.500000	78.991
38.200001	78.995
38.700001	78.998
39.500000	79.002
40.000000	79.001
40.599998	79.000
41.200001	79.003
41.799999	79.007
42.500000	78.998
43.099998	78.975
43.700001	78.943
44.400002	78.914
45.000000	78.901
45.500000	78.896
46.200001	78.892
46.799999	78.886
47.500000	78.877
48.200001	78.869
48.700001	78.863
49.400002	78.853
50.000000	78.841
50.799999	78.823
51.500000	78.810
52.200001	78.801
53.000000	78.797
53.799999	78.803
54.500000	78.813
55.200001	78.824
56.000000	78.838
57.000000	78.855
58.000000	78.868
59.000000	78.886
60.000000	78.915
60.799999	78.941
61.500000	78.962
62.200001	78.989
63.000000	79.031
64.000000	79.099
65.000000	79.180
66.000000	79.271
67.000000	79.369
68.000000	79.472
69.000000	79.580
70.000000	79.695
71.000000	79.818
72.000000	79.939
73.000000	80.051
74.000000	80.155
75.000000	80.253
76.199997	80.362
77.500000	80.464
78.800003	80.556
80.000000	80.646
81.199997	80.748
82.500000	80.874
83.800003	81.018
85.000000	81.151
86.199997	81.260
87.500000	81.349
88.500000	81.415
90.000000	81.507
91.199997	81.566
92.500000	81.614
93.800003	81.650
95.000000	81.675
96.199997	81.693
97.500000	81.707
98.800003	81.716
100.000000	81.724
101.500000	81.733
103.000000	81.740
104.400002	81.741
106.000000	81.730
107.500000	81.702
109.000000	81.659
110.599998	81.601
112.000000	81.544
113.800003	81.462
115.000000	81.402
117.199997	81.287
118.000000	81.245
120.599998	81.112
122.000000	81.049
124.099998	80.963
125.000000	80.929
126.500000	80.876
128.000000	80.826
131.500000	80.703
132.000000	80.682
134.000000	80.591
136.000000	80.497
138.000000	80.407
140.000000	80.321
143.000000	80.209
145.000000	80.150
147.500000	80.095
150.000000	80.044
152.500000	79.979
155.000000	79.902
157.500000	79.814
160.000000	79.710
162.500000	79.591
165.000000	79.457
167.500000	79.309
170.000000	79.156
172.500000	79.005
175.000000	78.860
177.500000	78.724
180.000000	78.600
182.500000	78.490
185.000000	78.389
187.500000	78.294
190.000000	78.201
192.500000	78.112
195.000000	78.032
197.500000	77.960
200.000000	77.891
203.000000	77.805
206.000000	77.709
209.000000	77.606
212.000000	77.505
214.000000	77.439
218.000000	77.312
220.000000	77.249
224.000000	77.120
227.000000	77.017
230.000000	76.910
233.000000	76.800
236.000000	76.687
240.000000	76.538
243.000000	76.426
247.000000	76.277
250.000000	76.165
254.000000	76.013
258.000000	75.860
262.000000	75.706
265.000000	75.587
269.000000	75.425
272.000000	75.302
276.000000	75.135
280.000000	74.969
285.000000	74.767
290.000000	74.573
295.000000	74.388
300.000000	74.215
304.000000	74.083
307.000000	73.989
311.000000	73.869
315.000000	73.755
320.000000	73.621
325.000000	73.495
330.000000	73.375
335.000000	73.260
340.000000	73.150
345.000000	73.048
350.000000	72.953
355.000000	72.866
360.000000	72.786
365.000000	72.715
370.000000	72.652
375.000000	72.597
382.000000	72.535
387.000000	72.503
395.000000	72.470
400.000000	72.460
406.000000	72.455
412.000000	72.457
418.000000	72.462
425.000000	72.473
431.000000	72.486
437.000000	72.504
444.000000	72.526
450.000000	72.545
455.000000	72.561
462.000000	72.581
468.000000	72.599
475.000000	72.619
482.000000	72.638
487.000000	72.651
494.000000	72.668
500.000000	72.682
508.000000	72.699
515.000000	72.714
522.000000	72.726
530.000000	72.739
538.000000	72.749
545.000000	72.756
552.000000	72.761
560.000000	72.765
570.000000	72.768
580.000000	72.771
590.000000	72.775
600.000000	72.782
608.000000	72.789
615.000000	72.795
622.000000	72.802
630.000000	72.812
640.000000	72.827
650.000000	72.842
660.000000	72.855
670.000000	72.869
680.000000	72.882
690.000000	72.896
700.000000	72.907
710.000000	72.915
720.000000	72.917
730.000000	72.913
740.000000	72.905
750.000000	72.894
762.000000	72.881
775.000000	72.871
788.000000	72.868
800.000000	72.868
812.000000	72.865
825.000000	72.853
838.000000	72.834
850.000000	72.812
862.000000	72.794
875.000000	72.782
885.000000	72.781
900.000000	72.803
912.000000	72.846
925.000000	72.915
938.000000	72.984
950.000000	73.021
962.000000	73.018
975.000000	72.975
988.000000	72.915
1000.000000	72.859
1015.000000	72.789
1030.000000	72.724
1044.000000	72.698
1060.000000	72.757
1075.000000	72.912
1090.000000	73.133
1106.000000	73.386
1120.000000	73.583
1138.000000	73.774
1150.000000	73.860
1172.000000	73.943
1180.000000	73.956
1206.000000	73.974
1220.000000	73.984
1241.000000	74.016
1250.000000	74.038
1265.000000	74.086
1280.000000	74.145
1315.000000	74.305
1320.000000	74.328
1340.000000	74.420
1360.000000	74.516
1380.000000	74.624
1400.000000	74.746
1430.000000	74.958
1450.000000	75.114
1475.000000	75.322
1500.000000	75.534
1525.000000	75.745
1550.000000	75.953
1575.000000	76.164
1600.000000	76.380
1625.000000	76.603
1650.000000	76.833
1675.000000	77.070
1700.000000	77.313
1725.000000	77.560
1750.000000	77.807
1775.000000	78.051
1800.000000	78.292
1825.000000	78.533
1850.000000	78.777
1875.000000	79.027
1900.000000	79.279
1925.000000	79.530
1950.000000	79.775
1975.000000	80.013
2000.000000	80.243
2030.000000	80.508
2060.000000	80.764
2090.000000	81.012
2120.000000	81.253
2140.000000	81.410
2180.000000	81.715
2200.000000	81.863
2240.000000	82.150
2270.000000	82.359
2300.000000	82.563
2330.000000	82.764
2360.000000	82.961
2400.000000	83.222
2430.000000	83.417
2470.000000	83.678
2500.000000	83.876
2540.000000	84.147
2580.000000	84.426
2620.000000	84.711
2650.000000	84.928
2690.000000	85.218
2720.000000	85.434
2760.000000	85.714
2800.000000	85.981
2850.000000	86.285
2900.000000	86.543
2950.000000	86.742
3000.000000	86.876
3040.000000	86.933
3070.000000	86.944
3110.000000	86.917
3150.000000	86.844
3200.000000	86.695
3250.000000	86.492
3300.000000	86.238
3350.000000	85.937
3400.000000	85.599
3450.000000	85.238
3500.000000	84.869
3550.000000	84.505
3600.000000	84.151
3650.000000	83.813
3700.000000	83.490
3750.000000	83.186
3820.000000	82.796
3870.000000	82.548
3950.000000	82.208
4000.000000	82.033
4060.000000	81.859
4120.000000	81.731
4180.000000	81.654
4250.000000	81.633
4310.000000	81.679
4370.000000	81.786
4440.000000	81.993
4500.000000	82.246
4550.000000	82.513
4620.000000	82.977
4680.000000	83.458
4750.000000	84.111
4820.000000	84.836
4870.000000	85.371
4940.000000	86.086
5000.000000	86.604
5080.000000	87.046
5150.000000	87.114
5220.000000	86.847
5300.000000	86.155
5380.000000	85.138
5450.000000	84.077
5520.000000	82.943
5600.000000	81.644
5700.000000	80.118
5800.000000	78.763
5900.000000	77.598
6000.000000	76.613
6080.000000	75.948
6150.000000	75.452
6220.000000	75.032
6300.000000	74.644
6400.000000	74.285
6500.000000	74.045
6600.000000	73.884
6700.000000	73.755
6800.000000	73.613
6900.000000	73.436
7000.000000	73.223
7100.000000	72.981
7200.000000	72.708
7300.000000	72.395
7400.000000	72.029
7500.000000	71.598
7620.000000	70.986
7750.000000	70.216
7880.000000	69.340
8000.000000	68.452
8120.000000	67.602
8250.000000	67.097
8380.000000	67.555
8500.000000	68.894
8620.000000	70.598
8750.000000	72.189
8850.000000	72.955
9000.000000	73.214
9120.000000	72.760
9250.000000	71.837
9380.000000	70.686
9500.000000	69.547
9620.000000	68.375
9750.000000	67.064
9880.000000	65.684
10000.000000	64.347
10150.000000	62.706
10300.000000	61.580
10440.000000	61.640
10600.000000	62.789
10750.000000	63.866
10900.000000	64.358
11060.000000	64.237
11200.000000	63.894
11380.000000	63.795
11500.000000	64.175
11720.000000	65.532
11800.000000	66.105
12060.000000	67.928
12200.000000	68.837
12410.000000	70.045
12500.000000	70.473
12650.000000	70.998
12800.000000	71.212
13150.000000	70.224
13200.000000	69.915
13400.000000	68.334
13600.000000	66.335
13800.000000	64.086
14000.000000	61.725
14300.000000	58.252
14500.000000	56.228
14750.000000	54.413
15000.000000	53.630
15250.000000	53.771
15500.000000	54.540
15750.000000	55.675
16000.000000	57.006
16250.000000	58.391
16500.000000	59.687
16750.000000	60.760
17000.000000	61.478
17250.000000	61.725
17500.000000	61.428
17750.000000	60.612
18000.000000	59.429
18250.000000	58.210
18500.000000	57.456
18750.000000	57.556
19000.000000	58.341
19250.000000	59.288
19500.000000	60.015
19750.000000	60.411
