* Measurement data measured by REW V5.20.13
* Source: Frequency Response Averaged data
* Format: Averaged data produced from the rms magnitudes of Philphone Frankenrose R, Philphone Frankenrose R, Philphone Frankenrose R, Philphone Frankenrose R, Philphone Frankenrose R
* Dated: Feb 7, 2024 4:51:09 PM
* REW Settings:
*  C-weighting compensation: Off
*  Target level: 75.0 dB
* Note: Averaged data produced from the rms magnitudes of Philphone Frankenrose R, Philphone Frankenrose R, Philphone Frankenrose R, Philphone Frankenrose R, Philphone Frankenrose R
* Measurement: RMS Average R
* Smoothing: 1/12 octave
* Frequency Step: 1/48 octave
* Start Frequency: 20.000 Hz
*
* Freq(Hz)	SPL(dB)
20.000000	70.279
20.299999	70.506
20.600000	70.717
20.900000	70.917
21.200001	71.111
21.400000	71.239
21.799999	71.494
22.000000	71.620
22.400000	71.873
22.700001	72.060
23.000000	72.245
23.299999	72.426
23.600000	72.602
24.000000	72.829
24.299999	72.993
24.700001	73.204
25.000000	73.355
25.400000	73.550
25.799999	73.736
26.200001	73.916
26.500000	74.048
26.900000	74.224
27.200001	74.357
27.600000	74.536
28.000000	74.714
28.500000	74.929
29.000000	75.133
29.500000	75.322
30.000000	75.501
30.400000	75.637
30.700001	75.735
31.100000	75.857
31.500000	75.968
32.000000	76.092
32.500000	76.210
33.000000	76.331
33.500000	76.461
34.000000	76.597
34.500000	76.730
35.000000	76.855
35.500000	76.972
36.000000	77.086
36.500000	77.201
37.000000	77.317
37.500000	77.431
38.200001	77.577
38.700001	77.669
39.500000	77.796
40.000000	77.866
40.599998	77.943
41.200001	78.017
41.799999	78.089
42.500000	78.172
43.099998	78.241
43.700001	78.308
44.400002	78.383
45.000000	78.444
45.500000	78.491
46.200001	78.549
46.799999	78.587
47.500000	78.614
48.200001	78.620
48.700001	78.614
49.400002	78.597
50.000000	78.582
50.799999	78.570
51.500000	78.576
52.200001	78.602
53.000000	78.651
53.799999	78.714
54.500000	78.773
55.200001	78.829
56.000000	78.886
57.000000	78.949
58.000000	79.011
59.000000	79.079
60.000000	79.148
60.799999	79.194
61.500000	79.225
62.200001	79.247
63.000000	79.266
64.000000	79.284
65.000000	79.296
66.000000	79.299
67.000000	79.292
68.000000	79.275
69.000000	79.253
70.000000	79.232
71.000000	79.217
72.000000	79.212
73.000000	79.218
74.000000	79.230
75.000000	79.246
76.199997	79.261
77.500000	79.270
78.800003	79.268
80.000000	79.259
81.199997	79.245
82.500000	79.230
83.800003	79.219
85.000000	79.212
86.199997	79.207
87.500000	79.202
88.500000	79.197
90.000000	79.190
91.199997	79.185
92.500000	79.179
93.800003	79.174
95.000000	79.166
96.199997	79.155
97.500000	79.139
98.800003	79.119
100.000000	79.097
101.500000	79.067
103.000000	79.033
104.400002	78.996
106.000000	78.947
107.500000	78.895
109.000000	78.838
110.599998	78.774
112.000000	78.717
113.800003	78.643
115.000000	78.592
117.199997	78.497
118.000000	78.462
120.599998	78.347
122.000000	78.284
124.099998	78.190
125.000000	78.151
126.500000	78.090
128.000000	78.036
131.500000	77.945
132.000000	77.936
134.000000	77.900
136.000000	77.868
138.000000	77.835
140.000000	77.799
143.000000	77.739
145.000000	77.696
147.500000	77.641
150.000000	77.586
152.500000	77.531
155.000000	77.474
157.500000	77.415
160.000000	77.354
162.500000	77.292
165.000000	77.231
167.500000	77.170
170.000000	77.111
172.500000	77.053
175.000000	76.995
177.500000	76.937
180.000000	76.878
182.500000	76.820
185.000000	76.762
187.500000	76.707
190.000000	76.654
192.500000	76.603
195.000000	76.554
197.500000	76.506
200.000000	76.457
203.000000	76.400
206.000000	76.343
209.000000	76.285
212.000000	76.228
214.000000	76.190
218.000000	76.113
220.000000	76.074
224.000000	75.996
227.000000	75.937
230.000000	75.879
233.000000	75.822
236.000000	75.767
240.000000	75.701
243.000000	75.655
247.000000	75.599
250.000000	75.559
254.000000	75.508
258.000000	75.460
262.000000	75.417
265.000000	75.387
269.000000	75.350
272.000000	75.325
276.000000	75.293
280.000000	75.261
285.000000	75.221
290.000000	75.180
295.000000	75.141
300.000000	75.105
304.000000	75.076
307.000000	75.056
311.000000	75.028
315.000000	75.002
320.000000	74.970
325.000000	74.939
330.000000	74.908
335.000000	74.877
340.000000	74.843
345.000000	74.804
350.000000	74.759
355.000000	74.707
360.000000	74.652
365.000000	74.597
370.000000	74.547
375.000000	74.505
382.000000	74.462
387.000000	74.443
395.000000	74.424
400.000000	74.415
406.000000	74.406
412.000000	74.397
418.000000	74.387
425.000000	74.374
431.000000	74.362
437.000000	74.351
444.000000	74.341
450.000000	74.337
455.000000	74.336
462.000000	74.337
468.000000	74.339
475.000000	74.342
482.000000	74.346
487.000000	74.349
494.000000	74.355
500.000000	74.363
508.000000	74.378
515.000000	74.395
522.000000	74.414
530.000000	74.432
538.000000	74.442
545.000000	74.440
552.000000	74.428
560.000000	74.407
570.000000	74.382
580.000000	74.374
590.000000	74.390
600.000000	74.431
608.000000	74.478
615.000000	74.529
622.000000	74.585
630.000000	74.656
640.000000	74.749
650.000000	74.845
660.000000	74.942
670.000000	75.042
680.000000	75.146
690.000000	75.252
700.000000	75.362
710.000000	75.473
720.000000	75.585
730.000000	75.698
740.000000	75.811
750.000000	75.925
762.000000	76.067
775.000000	76.226
788.000000	76.387
800.000000	76.529
812.000000	76.657
825.000000	76.776
838.000000	76.876
850.000000	76.953
862.000000	77.021
875.000000	77.089
885.000000	77.140
900.000000	77.220
912.000000	77.287
925.000000	77.363
938.000000	77.443
950.000000	77.518
962.000000	77.593
975.000000	77.675
988.000000	77.756
1000.000000	77.831
1015.000000	77.925
1030.000000	78.018
1044.000000	78.103
1060.000000	78.192
1075.000000	78.270
1090.000000	78.350
1106.000000	78.451
1120.000000	78.556
1138.000000	78.709
1150.000000	78.815
1172.000000	79.002
1180.000000	79.066
1206.000000	79.253
1220.000000	79.344
1241.000000	79.470
1250.000000	79.521
1265.000000	79.603
1280.000000	79.681
1315.000000	79.864
1320.000000	79.891
1340.000000	80.002
1360.000000	80.118
1380.000000	80.237
1400.000000	80.356
1430.000000	80.520
1450.000000	80.610
1475.000000	80.698
1500.000000	80.762
1525.000000	80.814
1550.000000	80.864
1575.000000	80.911
1600.000000	80.955
1625.000000	80.992
1650.000000	81.024
1675.000000	81.048
1700.000000	81.057
1725.000000	81.044
1750.000000	81.001
1775.000000	80.923
1800.000000	80.802
1825.000000	80.632
1850.000000	80.412
1875.000000	80.140
1900.000000	79.819
1925.000000	79.454
1950.000000	79.054
1975.000000	78.631
2000.000000	78.205
2030.000000	77.721
2060.000000	77.298
2090.000000	76.956
2120.000000	76.703
2140.000000	76.587
2180.000000	76.484
2200.000000	76.497
2240.000000	76.648
2270.000000	76.858
2300.000000	77.131
2330.000000	77.439
2360.000000	77.748
2400.000000	78.102
2430.000000	78.292
2470.000000	78.423
2500.000000	78.443
2540.000000	78.420
2580.000000	78.435
2620.000000	78.582
2650.000000	78.810
2690.000000	79.273
2720.000000	79.715
2760.000000	80.381
2800.000000	81.080
2850.000000	81.946
2900.000000	82.789
2950.000000	83.621
3000.000000	84.437
3040.000000	85.062
3070.000000	85.507
3110.000000	86.061
3150.000000	86.572
3200.000000	87.150
3250.000000	87.668
3300.000000	88.122
3350.000000	88.507
3400.000000	88.821
3450.000000	89.065
3500.000000	89.241
3550.000000	89.355
3600.000000	89.407
3650.000000	89.400
3700.000000	89.333
3750.000000	89.209
3820.000000	88.947
3870.000000	88.702
3950.000000	88.230
4000.000000	87.896
4060.000000	87.467
4120.000000	87.019
4180.000000	86.554
4250.000000	85.995
4310.000000	85.506
4370.000000	85.014
4440.000000	84.447
4500.000000	83.978
4550.000000	83.607
4620.000000	83.128
4680.000000	82.769
4750.000000	82.432
4820.000000	82.209
4870.000000	82.135
4940.000000	82.161
5000.000000	82.312
5080.000000	82.693
5150.000000	83.179
5220.000000	83.766
5300.000000	84.480
5380.000000	85.133
5450.000000	85.567
5520.000000	85.813
5600.000000	85.824
5700.000000	85.427
5800.000000	84.645
5900.000000	83.608
6000.000000	82.453
6080.000000	81.516
6150.000000	80.718
6220.000000	79.955
6300.000000	79.140
6400.000000	78.212
6500.000000	77.389
6600.000000	76.671
6700.000000	76.063
6800.000000	75.574
6900.000000	75.209
7000.000000	74.960
7100.000000	74.817
7200.000000	74.770
7300.000000	74.811
7400.000000	74.932
7500.000000	75.127
7620.000000	75.447
7750.000000	75.879
7880.000000	76.349
8000.000000	76.768
8120.000000	77.145
8250.000000	77.516
8380.000000	77.892
8500.000000	78.268
8620.000000	78.650
8750.000000	78.993
8850.000000	79.140
9000.000000	79.071
9120.000000	78.721
9250.000000	78.049
9380.000000	77.124
9500.000000	76.124
9620.000000	75.070
9750.000000	73.946
9880.000000	72.877
10000.000000	71.932
10150.000000	70.792
10300.000000	69.759
10440.000000	69.068
10600.000000	68.857
10750.000000	69.240
10900.000000	69.925
11060.000000	70.639
11200.000000	71.062
11380.000000	71.213
11500.000000	71.065
11720.000000	70.404
11800.000000	70.100
12060.000000	69.322
12200.000000	69.279
12410.000000	69.819
12500.000000	70.201
12650.000000	70.896
12800.000000	71.546
13150.000000	72.523
13200.000000	72.591
13400.000000	72.707
13600.000000	72.627
13800.000000	72.463
14000.000000	72.345
14300.000000	72.449
14500.000000	72.685
14750.000000	72.995
15000.000000	73.151
15250.000000	73.087
15500.000000	72.858
15750.000000	72.602
16000.000000	72.477
16250.000000	72.569
16500.000000	72.823
16750.000000	73.086
17000.000000	73.207
17250.000000	73.096
17500.000000	72.767
17750.000000	72.349
18000.000000	72.045
18250.000000	72.000
18500.000000	72.180
18750.000000	72.393
19000.000000	72.435
19250.000000	72.187
19500.000000	71.655
19750.000000	70.992
