* Measurement data measured by REW V5.20.13
* Source: Frequency Response Averaged data
* Format: Averaged data produced from the rms magnitudes of Philphone Frankenrose L, Philphone Frankenrose L, Philphone Frankenrose L, Philphone Frankenrose L, Philphone Frankenrose L
* Dated: Feb 7, 2024 4:53:15 PM
* REW Settings:
*  C-weighting compensation: Off
*  Target level: 75.0 dB
* Note: Averaged data produced from the rms magnitudes of Philphone Frankenrose L, Philphone Frankenrose L, Philphone Frankenrose L, Philphone Frankenrose L, Philphone Frankenrose L
* Measurement: RMS Average L
* Smoothing: 1/12 octave
* Frequency Step: 1/48 octave
* Start Frequency: 20.000 Hz
*
* Freq(Hz)	SPL(dB)
20.000000	61.181
20.299999	61.431
20.600000	61.669
20.900000	61.903
21.200001	62.141
21.400000	62.303
21.799999	62.627
22.000000	62.785
22.400000	63.080
22.700001	63.280
23.000000	63.463
23.299999	63.640
23.600000	63.819
24.000000	64.072
24.299999	64.275
24.700001	64.550
25.000000	64.751
25.400000	64.998
25.799999	65.223
26.200001	65.434
26.500000	65.592
26.900000	65.807
27.200001	65.971
27.600000	66.188
28.000000	66.394
28.500000	66.630
29.000000	66.848
29.500000	67.059
30.000000	67.263
30.400000	67.421
30.700001	67.534
31.100000	67.683
31.500000	67.833
32.000000	68.025
32.500000	68.219
33.000000	68.403
33.500000	68.572
34.000000	68.731
34.500000	68.886
35.000000	69.042
35.500000	69.195
36.000000	69.344
36.500000	69.487
37.000000	69.625
37.500000	69.758
38.200001	69.935
38.700001	70.056
39.500000	70.237
40.000000	70.341
40.599998	70.456
41.200001	70.564
41.799999	70.670
42.500000	70.791
43.099998	70.890
43.700001	70.984
44.400002	71.088
45.000000	71.176
45.500000	71.247
46.200001	71.344
46.799999	71.419
47.500000	71.490
48.200001	71.535
48.700001	71.550
49.400002	71.555
50.000000	71.552
50.799999	71.551
51.500000	71.559
52.200001	71.578
53.000000	71.614
53.799999	71.665
54.500000	71.722
55.200001	71.785
56.000000	71.858
57.000000	71.942
58.000000	72.004
59.000000	72.039
60.000000	72.099
60.799999	72.190
61.500000	72.281
62.200001	72.363
63.000000	72.439
64.000000	72.513
65.000000	72.567
66.000000	72.602
67.000000	72.619
68.000000	72.622
69.000000	72.616
70.000000	72.606
71.000000	72.600
72.000000	72.601
73.000000	72.608
74.000000	72.618
75.000000	72.623
76.199997	72.620
77.500000	72.606
78.800003	72.595
80.000000	72.595
81.199997	72.600
82.500000	72.613
83.800003	72.629
85.000000	72.638
86.199997	72.639
87.500000	72.635
88.500000	72.630
90.000000	72.619
91.199997	72.606
92.500000	72.589
93.800003	72.570
95.000000	72.547
96.199997	72.517
97.500000	72.478
98.800003	72.435
100.000000	72.392
101.500000	72.336
103.000000	72.278
104.400002	72.219
106.000000	72.146
107.500000	72.075
109.000000	72.007
110.599998	71.940
112.000000	71.884
113.800003	71.804
115.000000	71.737
117.199997	71.587
118.000000	71.532
120.599998	71.396
122.000000	71.348
124.099998	71.262
125.000000	71.216
126.500000	71.129
128.000000	71.042
131.500000	70.910
132.000000	70.902
134.000000	70.886
136.000000	70.877
138.000000	70.858
140.000000	70.830
143.000000	70.781
145.000000	70.745
147.500000	70.696
150.000000	70.643
152.500000	70.585
155.000000	70.520
157.500000	70.452
160.000000	70.386
162.500000	70.324
165.000000	70.260
167.500000	70.197
170.000000	70.137
172.500000	70.081
175.000000	70.028
177.500000	69.972
180.000000	69.914
182.500000	69.857
185.000000	69.804
187.500000	69.754
190.000000	69.705
192.500000	69.657
195.000000	69.610
197.500000	69.566
200.000000	69.523
203.000000	69.473
206.000000	69.422
209.000000	69.371
212.000000	69.320
214.000000	69.286
218.000000	69.219
220.000000	69.186
224.000000	69.118
227.000000	69.064
230.000000	69.009
233.000000	68.951
236.000000	68.892
240.000000	68.819
243.000000	68.776
247.000000	68.726
250.000000	68.689
254.000000	68.640
258.000000	68.592
262.000000	68.544
265.000000	68.506
269.000000	68.457
272.000000	68.420
276.000000	68.369
280.000000	68.315
285.000000	68.250
290.000000	68.192
295.000000	68.141
300.000000	68.096
304.000000	68.067
307.000000	68.049
311.000000	68.025
315.000000	68.004
320.000000	67.979
325.000000	67.954
330.000000	67.928
335.000000	67.902
340.000000	67.877
345.000000	67.854
350.000000	67.833
355.000000	67.812
360.000000	67.790
365.000000	67.770
370.000000	67.753
375.000000	67.742
382.000000	67.728
387.000000	67.716
395.000000	67.692
400.000000	67.673
406.000000	67.651
412.000000	67.630
418.000000	67.613
425.000000	67.598
431.000000	67.588
437.000000	67.578
444.000000	67.569
450.000000	67.565
455.000000	67.564
462.000000	67.565
468.000000	67.566
475.000000	67.567
482.000000	67.573
487.000000	67.581
494.000000	67.596
500.000000	67.611
508.000000	67.632
515.000000	67.654
522.000000	67.679
530.000000	67.713
538.000000	67.750
545.000000	67.782
552.000000	67.814
560.000000	67.854
570.000000	67.914
580.000000	67.981
590.000000	68.054
600.000000	68.128
608.000000	68.187
615.000000	68.240
622.000000	68.291
630.000000	68.337
640.000000	68.351
650.000000	68.286
660.000000	68.137
670.000000	67.974
680.000000	67.902
690.000000	67.967
700.000000	68.127
710.000000	68.325
720.000000	68.520
730.000000	68.703
740.000000	68.874
750.000000	69.037
762.000000	69.228
775.000000	69.422
788.000000	69.590
800.000000	69.718
812.000000	69.820
825.000000	69.910
838.000000	69.988
850.000000	70.059
862.000000	70.128
875.000000	70.195
885.000000	70.241
900.000000	70.307
912.000000	70.365
925.000000	70.436
938.000000	70.518
950.000000	70.602
962.000000	70.686
975.000000	70.777
988.000000	70.870
1000.000000	70.960
1015.000000	71.073
1030.000000	71.185
1044.000000	71.289
1060.000000	71.402
1075.000000	71.501
1090.000000	71.593
1106.000000	71.685
1120.000000	71.755
1138.000000	71.848
1150.000000	71.934
1172.000000	72.153
1180.000000	72.239
1206.000000	72.501
1220.000000	72.620
1241.000000	72.763
1250.000000	72.815
1265.000000	72.895
1280.000000	72.968
1315.000000	73.125
1320.000000	73.147
1340.000000	73.233
1360.000000	73.303
1380.000000	73.366
1400.000000	73.438
1430.000000	73.550
1450.000000	73.615
1475.000000	73.701
1500.000000	73.802
1525.000000	73.906
1550.000000	74.007
1575.000000	74.096
1600.000000	74.157
1625.000000	74.205
1650.000000	74.250
1675.000000	74.270
1700.000000	74.251
1725.000000	74.207
1750.000000	74.165
1775.000000	74.148
1800.000000	74.146
1825.000000	74.136
1850.000000	74.108
1875.000000	74.058
1900.000000	73.981
1925.000000	73.867
1950.000000	73.692
1975.000000	73.429
2000.000000	73.074
2030.000000	72.550
2060.000000	71.954
2090.000000	71.331
2120.000000	70.727
2140.000000	70.350
2180.000000	69.729
2200.000000	69.536
2240.000000	69.468
2270.000000	69.634
2300.000000	69.870
2330.000000	70.085
2360.000000	70.220
2400.000000	70.239
2430.000000	70.179
2470.000000	70.139
2500.000000	70.215
2540.000000	70.498
2580.000000	70.975
2620.000000	71.541
2650.000000	71.946
2690.000000	72.434
2720.000000	72.792
2760.000000	73.306
2800.000000	73.882
2850.000000	74.687
2900.000000	75.583
2950.000000	76.530
3000.000000	77.468
3040.000000	78.179
3070.000000	78.676
3110.000000	79.277
3150.000000	79.803
3200.000000	80.371
3250.000000	80.869
3300.000000	81.313
3350.000000	81.702
3400.000000	82.019
3450.000000	82.248
3500.000000	82.373
3550.000000	82.382
3600.000000	82.270
3650.000000	82.051
3700.000000	81.750
3750.000000	81.398
3820.000000	80.860
3870.000000	80.461
3950.000000	79.804
4000.000000	79.385
4060.000000	78.879
4120.000000	78.377
4180.000000	77.889
4250.000000	77.347
4310.000000	76.909
4370.000000	76.505
4440.000000	76.092
4500.000000	75.794
4550.000000	75.582
4620.000000	75.335
4680.000000	75.174
4750.000000	75.057
4820.000000	75.031
4870.000000	75.078
4940.000000	75.253
5000.000000	75.518
5080.000000	76.051
5150.000000	76.692
5220.000000	77.495
5300.000000	78.599
5380.000000	79.856
5450.000000	80.990
5520.000000	82.019
5600.000000	82.862
5700.000000	83.125
5800.000000	82.387
5900.000000	80.841
6000.000000	78.868
6080.000000	77.234
6150.000000	75.882
6220.000000	74.660
6300.000000	73.450
6400.000000	72.221
6500.000000	71.277
6600.000000	70.587
6700.000000	70.134
6800.000000	69.914
6900.000000	69.936
7000.000000	70.195
7100.000000	70.670
7200.000000	71.316
7300.000000	72.065
7400.000000	72.831
7500.000000	73.508
7620.000000	74.054
7750.000000	74.159
7880.000000	73.736
8000.000000	72.969
8120.000000	71.870
8250.000000	70.264
8380.000000	68.342
8500.000000	66.651
8620.000000	65.572
8750.000000	65.526
8850.000000	66.113
9000.000000	67.138
9120.000000	67.553
9250.000000	67.430
9380.000000	66.813
9500.000000	65.973
9620.000000	65.048
9750.000000	64.122
9880.000000	63.378
10000.000000	62.877
10150.000000	62.506
10300.000000	62.389
10440.000000	62.404
10600.000000	62.414
10750.000000	62.367
10900.000000	62.295
11060.000000	62.178
11200.000000	61.916
11380.000000	61.133
11500.000000	60.363
11720.000000	59.637
11800.000000	60.047
12060.000000	63.412
12200.000000	65.476
12410.000000	68.065
12500.000000	68.936
12650.000000	70.061
12800.000000	70.783
13150.000000	70.970
13200.000000	70.846
13400.000000	70.089
13600.000000	69.081
13800.000000	67.965
14000.000000	66.770
14300.000000	65.017
14500.000000	64.447
14750.000000	65.035
15000.000000	66.253
15250.000000	67.044
15500.000000	67.180
15750.000000	66.881
16000.000000	66.395
16250.000000	65.912
16500.000000	65.638
16750.000000	65.620
17000.000000	65.676
17250.000000	65.546
17500.000000	64.983
17750.000000	63.910
18000.000000	62.693
18250.000000	62.394
18500.000000	63.611
18750.000000	65.382
19000.000000	66.813
19250.000000	67.601
19500.000000	67.734
19750.000000	67.418
