* Measurement data measured by REW V5.20.13
* Source: Frequency Response Averaged data
* Format: Averaged data produced from the rms magnitudes of Philephone Dilupus R, Philephone Dilupus R, Philephone Dilupus R, Philephone Dilupus R, Philephone Dilupus R, Vector average
* Dated: Feb 7, 2024 10:30:24 AM
* REW Settings:
*  C-weighting compensation: Off
*  Target level: 75.0 dB
* Note: Averaged data produced from the rms magnitudes of Philephone Dilupus R, Philephone Dilupus R, Philephone Dilupus R, Philephone Dilupus R, Philephone Dilupus R, Vector average
* Measurement: RMS Average R
* Smoothing: 1/12 octave
* Frequency Step: 1/48 octave
* Start Frequency: 20.000 Hz
*
* Freq(Hz)	SPL(dB)
20.000000	62.014
20.299999	62.225
20.600000	62.454
20.900000	62.699
21.200001	62.959
21.400000	63.136
21.799999	63.496
22.000000	63.677
22.400000	64.040
22.700001	64.312
23.000000	64.579
23.299999	64.841
23.600000	65.094
24.000000	65.418
24.299999	65.653
24.700001	65.962
25.000000	66.192
25.400000	66.494
25.799999	66.783
26.200001	67.049
26.500000	67.230
26.900000	67.446
27.200001	67.594
27.600000	67.782
28.000000	67.974
28.500000	68.227
29.000000	68.494
29.500000	68.757
30.000000	68.997
30.400000	69.170
30.700001	69.290
31.100000	69.446
31.500000	69.603
32.000000	69.806
32.500000	70.013
33.000000	70.214
33.500000	70.405
34.000000	70.584
34.500000	70.753
35.000000	70.915
35.500000	71.069
36.000000	71.217
36.500000	71.357
37.000000	71.492
37.500000	71.626
38.200001	71.823
38.700001	71.975
39.500000	72.226
40.000000	72.377
40.599998	72.547
41.200001	72.704
41.799999	72.849
42.500000	73.002
43.099998	73.123
43.700001	73.242
44.400002	73.380
45.000000	73.493
45.500000	73.579
46.200001	73.687
46.799999	73.772
47.500000	73.858
48.200001	73.920
48.700001	73.951
49.400002	73.989
50.000000	74.028
50.799999	74.093
51.500000	74.155
52.200001	74.214
53.000000	74.276
53.799999	74.335
54.500000	74.389
55.200001	74.444
56.000000	74.504
57.000000	74.566
58.000000	74.610
59.000000	74.635
60.000000	74.658
60.799999	74.678
61.500000	74.688
62.200001	74.687
63.000000	74.677
64.000000	74.659
65.000000	74.641
66.000000	74.636
67.000000	74.644
68.000000	74.662
69.000000	74.688
70.000000	74.721
71.000000	74.759
72.000000	74.797
73.000000	74.831
74.000000	74.862
75.000000	74.892
76.199997	74.933
77.500000	74.984
78.800003	75.036
80.000000	75.081
81.199997	75.122
82.500000	75.151
83.800003	75.157
85.000000	75.150
86.199997	75.142
87.500000	75.133
88.500000	75.124
90.000000	75.106
91.199997	75.089
92.500000	75.064
93.800003	75.028
95.000000	74.983
96.199997	74.931
97.500000	74.867
98.800003	74.796
100.000000	74.724
101.500000	74.624
103.000000	74.517
104.400002	74.417
106.000000	74.310
107.500000	74.216
109.000000	74.130
110.599998	74.049
112.000000	73.987
113.800003	73.915
115.000000	73.874
117.199997	73.821
118.000000	73.809
120.599998	73.755
122.000000	73.691
124.099998	73.564
125.000000	73.513
126.500000	73.439
128.000000	73.381
131.500000	73.272
132.000000	73.259
134.000000	73.209
136.000000	73.165
138.000000	73.119
140.000000	73.066
143.000000	72.979
145.000000	72.927
147.500000	72.867
150.000000	72.798
152.500000	72.722
155.000000	72.645
157.500000	72.570
160.000000	72.500
162.500000	72.435
165.000000	72.376
167.500000	72.318
170.000000	72.262
172.500000	72.206
175.000000	72.152
177.500000	72.097
180.000000	72.040
182.500000	71.979
185.000000	71.916
187.500000	71.850
190.000000	71.784
192.500000	71.721
195.000000	71.661
197.500000	71.604
200.000000	71.550
203.000000	71.493
206.000000	71.445
209.000000	71.402
212.000000	71.361
214.000000	71.334
218.000000	71.279
220.000000	71.251
224.000000	71.197
227.000000	71.156
230.000000	71.114
233.000000	71.070
236.000000	71.025
240.000000	70.967
243.000000	70.933
247.000000	70.894
250.000000	70.865
254.000000	70.827
258.000000	70.786
262.000000	70.742
265.000000	70.706
269.000000	70.659
272.000000	70.625
276.000000	70.582
280.000000	70.542
285.000000	70.495
290.000000	70.448
295.000000	70.401
300.000000	70.352
304.000000	70.315
307.000000	70.289
311.000000	70.258
315.000000	70.229
320.000000	70.193
325.000000	70.155
330.000000	70.114
335.000000	70.072
340.000000	70.034
345.000000	70.001
350.000000	69.973
355.000000	69.948
360.000000	69.923
365.000000	69.895
370.000000	69.867
375.000000	69.841
382.000000	69.807
387.000000	69.783
395.000000	69.743
400.000000	69.715
406.000000	69.681
412.000000	69.647
418.000000	69.618
425.000000	69.592
431.000000	69.575
437.000000	69.561
444.000000	69.549
450.000000	69.545
455.000000	69.547
462.000000	69.555
468.000000	69.564
475.000000	69.575
482.000000	69.586
487.000000	69.596
494.000000	69.614
500.000000	69.633
508.000000	69.665
515.000000	69.699
522.000000	69.737
530.000000	69.780
538.000000	69.822
545.000000	69.859
552.000000	69.898
560.000000	69.945
570.000000	70.009
580.000000	70.074
590.000000	70.141
600.000000	70.212
608.000000	70.270
615.000000	70.323
622.000000	70.374
630.000000	70.427
640.000000	70.476
650.000000	70.503
660.000000	70.510
670.000000	70.488
680.000000	70.421
690.000000	70.334
700.000000	70.308
710.000000	70.386
720.000000	70.531
730.000000	70.691
740.000000	70.843
750.000000	70.985
762.000000	71.150
775.000000	71.320
788.000000	71.472
800.000000	71.597
812.000000	71.707
825.000000	71.809
838.000000	71.899
850.000000	71.979
862.000000	72.058
875.000000	72.135
885.000000	72.188
900.000000	72.266
912.000000	72.335
925.000000	72.413
938.000000	72.485
950.000000	72.543
962.000000	72.597
975.000000	72.655
988.000000	72.720
1000.000000	72.788
1015.000000	72.884
1030.000000	72.991
1044.000000	73.100
1060.000000	73.236
1075.000000	73.378
1090.000000	73.536
1106.000000	73.701
1120.000000	73.828
1138.000000	73.999
1150.000000	74.142
1172.000000	74.442
1180.000000	74.554
1206.000000	74.895
1220.000000	75.064
1241.000000	75.305
1250.000000	75.405
1265.000000	75.568
1280.000000	75.728
1315.000000	76.102
1320.000000	76.154
1340.000000	76.359
1360.000000	76.558
1380.000000	76.748
1400.000000	76.911
1430.000000	77.072
1450.000000	77.143
1475.000000	77.235
1500.000000	77.344
1525.000000	77.467
1550.000000	77.600
1575.000000	77.748
1600.000000	77.915
1625.000000	78.083
1650.000000	78.215
1675.000000	78.304
1700.000000	78.367
1725.000000	78.413
1750.000000	78.440
1775.000000	78.440
1800.000000	78.414
1825.000000	78.383
1850.000000	78.353
1875.000000	78.293
1900.000000	78.182
1925.000000	78.023
1950.000000	77.812
1975.000000	77.547
2000.000000	77.235
2030.000000	76.825
2060.000000	76.397
2090.000000	75.962
2120.000000	75.544
2140.000000	75.293
2180.000000	74.890
2200.000000	74.739
2240.000000	74.549
2270.000000	74.495
2300.000000	74.490
2330.000000	74.528
2360.000000	74.615
2400.000000	74.793
2430.000000	74.942
2470.000000	75.130
2500.000000	75.265
2540.000000	75.460
2580.000000	75.694
2620.000000	75.995
2650.000000	76.269
2690.000000	76.673
2720.000000	76.994
2760.000000	77.450
2800.000000	77.959
2850.000000	78.692
2900.000000	79.495
2950.000000	80.296
3000.000000	81.053
3040.000000	81.633
3070.000000	82.057
3110.000000	82.602
3150.000000	83.119
3200.000000	83.719
3250.000000	84.267
3300.000000	84.758
3350.000000	85.175
3400.000000	85.503
3450.000000	85.730
3500.000000	85.847
3550.000000	85.854
3600.000000	85.766
3650.000000	85.601
3700.000000	85.377
3750.000000	85.107
3820.000000	84.656
3870.000000	84.278
3950.000000	83.592
4000.000000	83.141
4060.000000	82.608
4120.000000	82.105
4180.000000	81.639
4250.000000	81.123
4310.000000	80.690
4370.000000	80.263
4440.000000	79.784
4500.000000	79.402
4550.000000	79.117
4620.000000	78.780
4680.000000	78.554
4750.000000	78.362
4820.000000	78.256
4870.000000	78.241
4940.000000	78.327
5000.000000	78.517
5080.000000	78.957
5150.000000	79.518
5220.000000	80.233
5300.000000	81.203
5380.000000	82.258
5450.000000	83.135
5520.000000	83.835
5600.000000	84.257
5700.000000	84.064
5800.000000	83.122
5900.000000	81.664
6000.000000	79.957
6080.000000	78.560
6150.000000	77.385
6220.000000	76.293
6300.000000	75.174
6400.000000	73.982
6500.000000	73.004
6600.000000	72.219
6700.000000	71.595
6800.000000	71.104
6900.000000	70.733
7000.000000	70.471
7100.000000	70.307
7200.000000	70.232
7300.000000	70.250
7400.000000	70.383
7500.000000	70.656
7620.000000	71.181
7750.000000	71.944
7880.000000	72.848
8000.000000	73.766
8120.000000	74.631
8250.000000	75.202
8380.000000	75.097
8500.000000	74.340
8620.000000	73.137
8750.000000	71.776
8850.000000	71.052
9000.000000	70.861
9120.000000	71.267
9250.000000	71.722
9380.000000	71.775
9500.000000	71.329
9620.000000	70.442
9750.000000	69.102
9880.000000	67.531
10000.000000	66.045
10150.000000	64.470
10300.000000	63.597
10440.000000	63.506
10600.000000	64.009
10750.000000	64.864
10900.000000	66.004
11060.000000	67.359
11200.000000	68.432
11380.000000	69.343
11500.000000	69.523
11720.000000	68.772
11800.000000	68.175
12060.000000	65.958
12200.000000	65.497
12410.000000	66.376
12500.000000	67.053
12650.000000	68.198
12800.000000	69.146
13150.000000	70.057
13200.000000	70.048
13400.000000	69.812
13600.000000	69.424
13800.000000	68.944
14000.000000	68.326
14300.000000	67.264
14500.000000	66.916
14750.000000	67.600
15000.000000	69.019
15250.000000	69.944
15500.000000	69.884
15750.000000	69.087
16000.000000	68.269
16250.000000	68.054
16500.000000	68.394
16750.000000	68.968
17000.000000	69.534
17250.000000	69.799
17500.000000	69.465
17750.000000	68.374
18000.000000	66.752
18250.000000	65.576
18500.000000	65.921
18750.000000	67.242
19000.000000	68.571
19250.000000	69.549
19500.000000	70.078
19750.000000	70.200
