* Measurement data measured by REW V5.20.13
* Source: EXCL: Headset (USB-C to 3.5mm Headphone Jack Adapter), MICROPHONE (Master Volume), 0, volume: 0.260. Timing signal peak level -40.0 dBFS, measurement signal peak level -40.0 dBFS
* Format: 256k Log Swept Sine, 1 sweep at -20.0 dBFS using an acoustic timing reference
* Dated: Jun 16, 2023 6:46:58 PM
* REW Settings:
*  C-weighting compensation: Off
*  Target level: 75.0 dB
* Note: 
* Measurement: Ragnarok Philphone
* Smoothing: 1/12 octave
* Frequency Step: 1/48 octave
* Start Frequency: 20.000 Hz
*
* Freq(Hz)	SPL(dB)	Phase(degrees)
20.000000	68.461	-66.1940
20.299999	68.603	-66.7898
20.600000	68.750	-67.2278
20.900000	68.906	-67.5805
21.200001	69.069	-67.9154
21.400000	69.181	-68.1599
21.799999	69.407	-68.7459
22.000000	69.518	-69.1093
22.400000	69.728	-70.0059
22.700001	69.871	-70.8317
23.000000	69.996	-71.7833
23.299999	70.102	-72.8496
23.600000	70.185	-74.0151
24.000000	70.255	-75.6731
24.299999	70.274	-76.9140
24.700001	70.257	-78.3991
25.000000	70.230	-79.2518
25.400000	70.213	-79.9370
25.799999	70.281	-80.2138
26.200001	70.467	-80.4520
26.500000	70.671	-80.8767
26.900000	70.979	-81.9739
27.200001	71.197	-83.1690
27.600000	71.438	-85.0271
28.000000	71.623	-86.8269
28.500000	71.823	-88.6572
29.000000	72.035	-90.0893
29.500000	72.254	-91.3609
30.000000	72.455	-92.4779
30.400000	72.608	-93.1534
30.700001	72.732	-93.5372
31.100000	72.919	-94.0378
31.500000	73.114	-94.7240
32.000000	73.311	-95.9646
32.500000	73.408	-97.3197
33.000000	73.431	-98.2497
33.500000	73.467	-98.6198
34.000000	73.579	-98.8737
34.500000	73.742	-99.5793
35.000000	73.882	-100.8681
35.500000	73.954	-102.4178
36.000000	73.977	-103.8496
36.500000	73.993	-105.0503
37.000000	74.027	-106.1280
37.500000	74.077	-107.1929
38.200001	74.157	-108.6541
38.700001	74.221	-109.6192
39.500000	74.343	-111.0555
40.000000	74.426	-111.9428
40.599998	74.522	-113.0154
41.200001	74.606	-114.0743
41.799999	74.679	-115.1057
42.500000	74.753	-116.3056
43.099998	74.802	-117.3719
43.700001	74.832	-118.4426
44.400002	74.851	-119.5849
45.000000	74.877	-120.4477
45.500000	74.915	-121.1643
46.200001	74.984	-122.2853
46.799999	75.039	-123.3417
47.500000	75.091	-124.5392
48.200001	75.141	-125.6153
48.700001	75.179	-126.3237
49.400002	75.236	-127.2733
50.000000	75.282	-128.0772
50.799999	75.333	-129.1804
51.500000	75.358	-130.1946
52.200001	75.358	-131.2253
53.000000	75.333	-132.3476
53.799999	75.308	-133.3881
54.500000	75.302	-134.3468
55.200001	75.302	-135.4644
56.000000	75.278	-136.8227
57.000000	75.223	-138.2057
58.000000	75.191	-139.1169
59.000000	75.182	-139.6094
60.000000	75.212	-139.5909
60.799999	75.289	-139.4262
61.500000	75.382	-139.4453
62.200001	75.468	-139.7327
63.000000	75.527	-140.3323
64.000000	75.532	-141.2374
65.000000	75.491	-142.0413
66.000000	75.466	-142.7289
67.000000	75.484	-143.5568
68.000000	75.518	-144.6273
69.000000	75.543	-145.7796
70.000000	75.555	-146.8567
71.000000	75.552	-147.7991
72.000000	75.531	-148.6017
73.000000	75.486	-149.2482
74.000000	75.430	-149.7433
75.000000	75.378	-150.1991
76.199997	75.316	-150.8983
77.500000	75.220	-151.7701
78.800003	75.119	-152.4442
80.000000	75.060	-153.0094
81.199997	75.007	-153.6009
82.500000	74.941	-154.0085
83.800003	74.883	-154.0510
85.000000	74.853	-153.7672
86.199997	74.869	-153.3346
87.500000	74.936	-153.0721
88.500000	74.997	-153.1780
90.000000	75.062	-153.7861
91.199997	75.086	-154.4338
92.500000	75.105	-155.1212
93.800003	75.124	-155.8012
95.000000	75.126	-156.3571
96.199997	75.119	-156.7549
97.500000	75.116	-157.1167
98.800003	75.116	-157.5790
100.000000	75.112	-158.1452
101.500000	75.098	-159.0002
103.000000	75.058	-159.8003
104.400002	75.001	-160.1768
106.000000	74.941	-160.1010
107.500000	74.902	-159.8819
109.000000	74.860	-159.8808
110.599998	74.796	-160.2294
112.000000	74.732	-160.7212
113.800003	74.661	-161.3572
115.000000	74.619	-161.6271
117.199997	74.559	-161.5661
118.000000	74.548	-161.4256
120.599998	74.541	-161.2656
122.000000	74.522	-161.4826
124.099998	74.464	-161.9040
125.000000	74.434	-162.0642
126.500000	74.380	-162.2958
128.000000	74.326	-162.4973
131.500000	74.269	-162.8289
132.000000	74.272	-162.8665
134.000000	74.292	-163.0229
136.000000	74.273	-163.0980
138.000000	74.223	-163.0874
140.000000	74.181	-163.3123
143.000000	74.119	-163.9610
145.000000	74.085	-164.1149
147.500000	74.035	-164.0790
150.000000	73.966	-164.0258
152.500000	73.917	-164.0145
155.000000	73.899	-163.9533
157.500000	73.887	-163.7966
160.000000	73.867	-163.7874
162.500000	73.820	-164.0365
165.000000	73.749	-164.1577
167.500000	73.685	-163.8855
170.000000	73.636	-163.5096
172.500000	73.574	-163.4316
175.000000	73.506	-163.6268
177.500000	73.469	-163.8751
180.000000	73.455	-163.9916
182.500000	73.430	-163.9145
185.000000	73.379	-163.7282
187.500000	73.317	-163.5411
190.000000	73.258	-163.3759
192.500000	73.204	-163.2233
195.000000	73.149	-163.0753
197.500000	73.092	-162.9046
200.000000	73.037	-162.6776
203.000000	72.972	-162.3370
206.000000	72.909	-161.9989
209.000000	72.852	-161.6882
212.000000	72.808	-161.3320
214.000000	72.789	-161.0475
218.000000	72.761	-160.4503
220.000000	72.743	-160.1812
224.000000	72.696	-159.7007
227.000000	72.662	-159.3525
230.000000	72.635	-158.9916
233.000000	72.609	-158.6140
236.000000	72.575	-158.2468
240.000000	72.521	-157.8197
243.000000	72.483	-157.5168
247.000000	72.443	-157.0688
250.000000	72.417	-156.6890
254.000000	72.381	-156.1176
258.000000	72.337	-155.5311
262.000000	72.277	-154.9936
265.000000	72.225	-154.6170
269.000000	72.161	-154.1376
272.000000	72.132	-153.7831
276.000000	72.136	-153.3199
280.000000	72.174	-152.9381
285.000000	72.195	-152.5760
290.000000	72.133	-152.0359
295.000000	72.037	-151.2336
300.000000	71.955	-150.3517
304.000000	71.905	-149.7143
307.000000	71.875	-149.3156
311.000000	71.852	-148.8484
315.000000	71.837	-148.3397
320.000000	71.811	-147.5517
325.000000	71.772	-146.6942
330.000000	71.728	-145.8457
335.000000	71.691	-145.0318
340.000000	71.667	-144.2407
345.000000	71.652	-143.4245
350.000000	71.642	-142.5672
355.000000	71.638	-141.7010
360.000000	71.635	-140.8599
365.000000	71.623	-140.0368
370.000000	71.605	-139.2251
375.000000	71.591	-138.4216
382.000000	71.586	-137.2974
387.000000	71.585	-136.5335
395.000000	71.578	-135.4055
400.000000	71.572	-134.7185
406.000000	71.558	-133.8831
412.000000	71.537	-132.9953
418.000000	71.518	-132.0031
425.000000	71.500	-130.7307
431.000000	71.488	-129.6046
437.000000	71.486	-128.4890
444.000000	71.495	-127.2244
450.000000	71.508	-126.1788
455.000000	71.519	-125.3274
462.000000	71.534	-124.1283
468.000000	71.550	-123.0870
475.000000	71.566	-121.9306
482.000000	71.576	-120.8575
487.000000	71.581	-120.0947
494.000000	71.592	-118.9816
500.000000	71.609	-117.9954
508.000000	71.637	-116.6805
515.000000	71.658	-115.5295
522.000000	71.686	-114.3533
530.000000	71.733	-112.9727
538.000000	71.781	-111.5822
545.000000	71.820	-110.3935
552.000000	71.864	-109.2612
560.000000	71.919	-108.0510
570.000000	71.995	-106.6646
580.000000	72.086	-105.4236
590.000000	72.182	-104.3058
600.000000	72.267	-103.4367
608.000000	72.299	-103.0135
615.000000	72.272	-102.7582
622.000000	72.178	-102.3513
630.000000	72.008	-101.2590
640.000000	71.818	-98.6285
650.000000	71.801	-95.3038
660.000000	71.949	-92.4136
670.000000	72.151	-90.2800
680.000000	72.339	-88.6370
690.000000	72.499	-87.2428
700.000000	72.639	-85.9778
710.000000	72.768	-84.7815
720.000000	72.885	-83.6379
730.000000	72.983	-82.5425
740.000000	73.066	-81.4762
750.000000	73.139	-80.3966
762.000000	73.219	-79.0451
775.000000	73.301	-77.5214
788.000000	73.378	-75.9694
800.000000	73.444	-74.5245
812.000000	73.508	-73.0737
825.000000	73.581	-71.4697
838.000000	73.662	-69.8079
850.000000	73.744	-68.2490
862.000000	73.833	-66.6906
875.000000	73.935	-65.0049
885.000000	74.020	-63.7203
900.000000	74.154	-61.8377
912.000000	74.265	-60.3744
925.000000	74.382	-58.8128
938.000000	74.489	-57.2485
950.000000	74.580	-55.8052
962.000000	74.673	-54.3858
975.000000	74.781	-52.8895
988.000000	74.893	-51.4278
1000.000000	74.999	-50.1014
1015.000000	75.133	-48.4736
1030.000000	75.269	-46.8926
1044.000000	75.391	-45.4861
1060.000000	75.522	-43.9344
1075.000000	75.643	-42.4758
1090.000000	75.766	-40.9997
1106.000000	75.904	-39.4273
1120.000000	76.032	-38.0990
1138.000000	76.198	-36.5086
1150.000000	76.303	-35.5131
1172.000000	76.477	-33.7855
1180.000000	76.534	-33.1841
1206.000000	76.690	-31.2362
1220.000000	76.765	-30.1489
1241.000000	76.879	-28.4734
1250.000000	76.929	-27.7449
1265.000000	77.011	-26.5306
1280.000000	77.090	-25.3278
1315.000000	77.276	-22.6111
1320.000000	77.302	-22.2394
1340.000000	77.401	-20.7655
1360.000000	77.490	-19.2797
1380.000000	77.575	-17.7980
1400.000000	77.658	-16.3043
1430.000000	77.801	-14.1475
1450.000000	77.892	-12.9452
1475.000000	77.952	-11.6004
1500.000000	77.966	-9.9674
1525.000000	78.015	-8.1073
1550.000000	78.079	-6.5244
1575.000000	78.099	-5.1214
1600.000000	78.085	-3.6326
1625.000000	78.063	-2.0962
1650.000000	78.024	-0.5865
1675.000000	77.959	1.0015
1700.000000	77.886	2.7029
1725.000000	77.810	4.4166
1750.000000	77.718	6.1574
1775.000000	77.618	7.9580
1800.000000	77.510	9.7479
1825.000000	77.379	11.5198
1850.000000	77.219	13.3605
1875.000000	77.040	15.2942
1900.000000	76.841	17.2446
1925.000000	76.601	19.2253
1950.000000	76.303	21.4110
1975.000000	75.953	24.0100
2000.000000	75.564	27.2089
2030.000000	75.087	32.0559
2060.000000	74.679	38.0307
2090.000000	74.435	44.7953
2120.000000	74.408	51.7457
2140.000000	74.504	56.1620
2180.000000	74.875	63.8587
2200.000000	75.099	67.0493
2240.000000	75.541	72.1920
2270.000000	75.818	75.0614
2300.000000	76.005	77.2659
2330.000000	76.079	79.0851
2360.000000	76.033	80.8125
2400.000000	75.779	83.5073
2430.000000	75.460	86.2983
2470.000000	74.936	91.5615
2500.000000	74.548	96.7406
2540.000000	74.155	105.0143
2580.000000	74.001	114.2086
2620.000000	74.121	123.5962
2650.000000	74.374	130.3612
2690.000000	74.865	138.6411
2720.000000	75.304	144.1859
2760.000000	75.926	150.6596
2800.000000	76.546	156.1341
2850.000000	77.262	161.7717
2900.000000	77.874	166.4712
2950.000000	78.376	170.7068
3000.000000	78.805	174.8706
3040.000000	79.129	178.1614
3070.000000	79.361	-179.4835
3110.000000	79.636	-176.4958
3150.000000	79.869	-173.5441
3200.000000	80.131	-169.7206
3250.000000	80.396	-165.7868
3300.000000	80.679	-161.9241
3350.000000	80.974	-158.3115
3400.000000	81.263	-155.0661
3450.000000	81.524	-152.1991
3500.000000	81.747	-149.6948
3550.000000	81.916	-147.5579
3600.000000	82.011	-145.7189
3650.000000	82.021	-144.0170
3700.000000	81.949	-142.3102
3750.000000	81.797	-140.5120
3820.000000	81.452	-137.6377
3870.000000	81.118	-135.1547
3950.000000	80.474	-130.1258
4000.000000	80.038	-126.2830
4060.000000	79.520	-121.0853
4120.000000	79.021	-115.4160
4180.000000	78.538	-109.3801
4250.000000	77.985	-101.8731
4310.000000	77.521	-94.9771
4370.000000	77.076	-87.6170
4440.000000	76.605	-78.4587
4500.000000	76.264	-70.2011
4550.000000	76.035	-63.1251
4620.000000	75.801	-53.0582
4680.000000	75.679	-44.3752
4750.000000	75.618	-34.2605
4820.000000	75.634	-24.1775
4870.000000	75.693	-16.9845
4940.000000	75.854	-6.9190
5000.000000	76.081	1.6846
5080.000000	76.551	12.9570
5150.000000	77.136	22.3137
5220.000000	77.867	30.7980
5300.000000	78.831	38.9344
5380.000000	79.842	44.8688
5450.000000	80.664	47.8196
5520.000000	81.312	48.4626
5600.000000	81.696	46.7499
5700.000000	81.482	43.1143
5800.000000	80.507	41.3174
5900.000000	78.974	43.6896
6000.000000	77.156	50.4634
6080.000000	75.671	58.4154
6150.000000	74.437	66.6417
6220.000000	73.306	75.6124
6300.000000	72.153	86.3795
6400.000000	70.895	100.2269
6500.000000	69.792	114.2988
6600.000000	68.814	128.4343
6700.000000	67.945	142.3849
6800.000000	67.145	155.8747
6900.000000	66.357	168.7488
7000.000000	65.517	-178.9216
7100.000000	64.563	-166.7970
7200.000000	63.455	-154.3417
7300.000000	62.181	-141.0076
7400.000000	60.732	-126.1053
7500.000000	59.105	-108.3721
7620.000000	57.091	-80.9975
7750.000000	56.094	-43.5492
7880.000000	57.996	-5.5017
8000.000000	61.064	20.6335
8120.000000	64.025	33.5958
8250.000000	66.655	32.9298
8380.000000	68.553	19.9169
8500.000000	69.660	0.9805
8620.000000	70.259	-20.1249
8750.000000	70.565	-41.1099
8850.000000	70.720	-54.2853
9000.000000	70.997	-68.6973
9120.000000	71.280	-76.3508
9250.000000	71.599	-81.9944
9380.000000	71.838	-86.0826
9500.000000	71.872	-89.1110
9620.000000	71.612	-91.1522
9750.000000	70.933	-90.9155
9880.000000	69.902	-86.5542
10000.000000	68.827	-78.3378
10150.000000	67.736	-63.3632
10300.000000	67.404	-45.5999
10440.000000	67.873	-29.1487
10600.000000	68.910	-12.9582
10750.000000	69.884	-1.3060
10900.000000	70.552	7.4253
11060.000000	70.792	15.4122
11200.000000	70.642	23.0439
11380.000000	70.170	34.8021
11500.000000	69.778	43.4551
11720.000000	68.828	60.2474
11800.000000	68.358	66.9998
12060.000000	66.491	92.9623
12200.000000	65.560	107.9422
12410.000000	64.535	125.8379
12500.000000	64.145	130.2314
12650.000000	63.382	131.4567
12800.000000	62.404	123.7245
13150.000000	60.958	76.4814
13200.000000	61.116	68.8928
13400.000000	62.420	44.5081
13600.000000	63.768	32.1410
13800.000000	64.492	29.0885
14000.000000	64.461	32.0133
14300.000000	63.104	46.1705
14500.000000	61.573	63.7321
14750.000000	59.856	96.9399
15000.000000	60.449	136.7079
15250.000000	62.991	167.2069
15500.000000	65.427	-177.9484
15750.000000	67.273	-172.9016
16000.000000	68.641	-170.8828
16250.000000	69.817	-167.6873
16500.000000	71.223	-161.8932
16750.000000	72.919	-156.3530
17000.000000	74.317	-156.1399
17250.000000	74.816	-162.0862
17500.000000	74.249	-169.4005
17750.000000	72.780	-173.3002
18000.000000	70.646	-171.8325
18250.000000	68.021	-164.2477
18500.000000	65.065	-150.6450
18750.000000	62.169	-134.1870
19000.000000	60.201	-121.4954
19250.000000	59.724	-118.9393
19500.000000	60.015	-128.0652
19750.000000	60.284	-143.4365
