* Measurement data measured by REW V5.31.1
* Source: EXCL: Headset (USB-C to 3.5mm Headphone Jack Adapter), MICROPHONE (Master Volume), 0, volume: 0.410. Timing signal peak level -37.1 dBFS, measurement signal peak level -32.5 dBFS
* Format: 256k Log Swept Sine, 1 sweep at -12.0 dBFS using an acoustic timing reference
* Dated: Oct 29, 2024 8:17:23 PM
* REW Settings:
*  C-weighting compensation: Off
*  Target level: 75.0 dB
* Note: Delay -0.1962 ms (-67 mm, -2.65 in) using estimated IR delay relative to Acoustic reference played from  R with no timing offset Clock adjustment: 9.5 ppm
* Measurement: L Ploopyphone
* Smoothing: 1/12 octave
* Frequency Step: 1/48 octave
* Start Frequency: 20.000 Hz
*
* Freq(Hz)	SPL(dB)	Phase(degrees)
20.000000	74.141	11.8126
20.299999	74.548	9.9983
20.600000	74.959	8.1721
20.900000	75.365	6.3087
21.200001	75.752	4.4434
21.400000	75.997	3.2454
21.799999	76.467	1.1123
22.000000	76.706	0.2197
22.400000	77.233	-1.2769
22.700001	77.692	-2.3503
23.000000	78.198	-3.6298
23.299999	78.718	-5.2739
23.600000	79.211	-7.3018
24.000000	79.771	-10.3657
24.299999	80.106	-12.6472
24.700001	80.468	-15.2527
25.000000	80.722	-16.7269
25.400000	81.107	-18.1193
25.799999	81.584	-19.2243
26.200001	82.138	-20.4824
26.500000	82.570	-21.6587
26.900000	83.136	-23.4952
27.200001	83.543	-24.9727
27.600000	84.075	-26.9437
28.000000	84.615	-28.8719
28.500000	85.324	-31.3147
29.000000	86.070	-33.9558
29.500000	86.841	-36.8752
30.000000	87.632	-40.0773
30.400000	88.284	-42.8622
30.700001	88.785	-45.1095
31.100000	89.465	-48.3599
31.500000	90.153	-51.9396
32.000000	91.010	-56.9166
32.500000	91.852	-62.4768
33.000000	92.664	-68.6475
33.500000	93.427	-75.4554
34.000000	94.115	-82.8999
34.500000	94.702	-90.9272
35.000000	95.159	-99.4232
35.500000	95.469	-108.2224
36.000000	95.619	-117.1243
36.500000	95.606	-125.9089
37.000000	95.439	-134.3557
37.500000	95.138	-142.2670
38.200001	94.547	-152.1826
38.700001	94.052	-158.3694
39.500000	93.212	-166.8285
40.000000	92.682	-171.3341
40.599998	92.055	-176.0541
41.200001	91.450	179.8875
41.799999	90.876	176.3750
42.500000	90.248	172.8082
43.099998	89.739	170.1321
43.700001	89.256	167.7783
44.400002	88.733	165.3512
45.000000	88.317	163.4291
45.500000	87.982	161.9055
46.200001	87.520	159.9489
46.799999	87.137	158.4828
47.500000	86.722	156.9573
48.200001	86.340	155.5188
48.700001	86.079	154.5333
49.400002	85.731	153.2355
50.000000	85.454	152.1795
50.799999	85.108	150.7981
51.500000	84.820	149.6469
52.200001	84.549	148.5884
53.000000	84.267	147.4341
53.799999	84.002	146.3115
54.500000	83.779	145.4246
55.200001	83.573	144.6443
56.000000	83.359	143.8263
57.000000	83.117	142.9072
58.000000	82.915	141.9960
59.000000	82.720	140.8138
60.000000	82.472	139.5438
60.799999	82.246	138.7107
61.500000	82.052	138.1083
62.200001	81.868	137.5245
63.000000	81.662	136.8166
64.000000	81.401	135.9331
65.000000	81.146	135.1142
66.000000	80.900	134.3322
67.000000	80.655	133.6550
68.000000	80.416	133.1561
69.000000	80.184	132.8338
70.000000	79.954	132.7042
71.000000	79.723	132.8687
72.000000	79.514	133.4502
73.000000	79.374	134.3481
74.000000	79.323	135.2347
75.000000	79.353	135.8322
76.199997	79.462	135.9097
77.500000	79.601	135.1521
78.800003	79.722	133.7172
80.000000	79.788	131.9542
81.199997	79.801	130.0515
82.500000	79.770	128.0784
83.800003	79.711	126.3914
85.000000	79.657	125.1414
86.199997	79.612	124.1083
87.500000	79.573	123.0981
88.500000	79.547	122.2950
90.000000	79.506	120.8232
91.199997	79.454	119.3665
92.500000	79.373	117.5807
93.800003	79.260	115.6889
95.000000	79.123	114.0118
96.199997	78.958	112.5555
97.500000	78.768	111.2974
98.800003	78.595	110.2652
100.000000	78.465	109.3333
101.500000	78.340	107.9645
103.000000	78.215	106.3019
104.400002	78.054	104.7126
106.000000	77.796	103.1748
107.500000	77.494	102.2470
109.000000	77.197	101.8703
110.599998	76.933	101.6077
112.000000	76.714	101.5017
113.800003	76.439	101.7523
115.000000	76.235	101.9443
117.199997	75.706	102.0424
118.000000	75.465	102.0909
120.599998	74.866	102.5354
122.000000	74.844	102.1638
124.099998	75.114	100.6050
125.000000	75.267	99.7690
126.500000	75.467	98.3177
128.000000	75.534	97.1056
131.500000	75.465	95.8797
132.000000	75.464	95.7011
134.000000	75.472	94.5957
136.000000	75.420	93.0211
138.000000	75.244	91.3976
140.000000	74.961	90.2287
143.000000	74.510	89.7921
145.000000	74.276	90.1433
147.500000	74.027	90.4288
150.000000	73.728	90.2598
152.500000	73.417	89.7450
155.000000	73.183	89.0884
157.500000	73.050	88.6341
160.000000	72.966	88.3071
162.500000	72.846	87.7535
165.000000	72.705	87.4062
167.500000	72.646	87.4095
170.000000	72.615	87.0942
172.500000	72.455	86.2706
175.000000	72.188	86.2935
177.500000	72.086	87.4234
180.000000	72.137	87.9431
182.500000	72.156	87.8666
185.000000	72.138	87.7301
187.500000	72.113	87.5050
190.000000	72.064	87.1802
192.500000	72.008	86.6318
195.000000	71.968	85.7561
197.500000	71.935	84.8256
200.000000	71.880	84.1669
203.000000	71.758	83.7836
206.000000	71.597	83.5333
209.000000	71.439	83.1102
212.000000	71.322	82.5120
214.000000	71.276	82.1415
218.000000	71.216	81.9445
220.000000	71.177	82.1255
224.000000	71.087	82.4426
227.000000	71.047	82.3246
230.000000	71.031	81.8109
233.000000	71.040	80.8215
236.000000	71.091	79.4800
240.000000	71.082	78.1189
243.000000	70.905	78.1187
247.000000	70.586	78.9205
250.000000	70.394	79.4189
254.000000	70.189	79.7573
258.000000	70.000	79.8859
262.000000	69.838	79.9725
265.000000	69.749	80.1259
269.000000	69.675	80.5712
272.000000	69.641	81.1277
276.000000	69.631	82.1049
280.000000	69.687	83.1733
285.000000	69.840	84.0056
290.000000	69.965	83.9102
295.000000	69.992	83.2388
300.000000	69.949	82.7136
304.000000	69.911	82.8693
307.000000	69.907	83.3525
311.000000	69.955	84.2589
315.000000	70.066	85.1249
320.000000	70.277	85.6298
325.000000	70.536	85.2715
330.000000	70.791	84.2509
335.000000	70.985	82.9735
340.000000	71.117	81.7457
345.000000	71.214	80.8315
350.000000	71.298	80.2215
355.000000	71.376	79.5834
360.000000	71.459	78.8271
365.000000	71.564	78.0090
370.000000	71.701	77.1403
375.000000	71.877	76.2169
382.000000	72.163	74.6221
387.000000	72.374	73.0542
395.000000	72.686	69.6435
400.000000	72.835	66.9202
406.000000	72.917	63.1984
412.000000	72.873	59.1844
418.000000	72.689	55.1168
425.000000	72.319	50.9058
431.000000	71.905	48.1702
437.000000	71.441	46.2898
444.000000	70.894	44.9200
450.000000	70.454	44.2767
455.000000	70.121	44.0673
462.000000	69.719	44.1807
468.000000	69.444	44.5677
475.000000	69.196	45.1893
482.000000	69.010	45.8143
487.000000	68.908	46.1732
494.000000	68.799	46.3846
500.000000	68.728	46.1502
508.000000	68.601	45.2179
515.000000	68.387	43.9570
522.000000	68.020	42.7656
530.000000	67.409	42.7872
538.000000	66.783	45.5801
545.000000	66.500	49.8588
552.000000	66.573	53.9366
560.000000	66.924	56.6495
570.000000	67.392	57.2995
580.000000	67.717	56.7383
590.000000	67.952	56.1414
600.000000	68.207	55.8763
608.000000	68.465	55.7507
615.000000	68.735	55.4958
622.000000	69.053	54.9865
630.000000	69.499	53.9859
640.000000	70.232	51.8940
650.000000	71.163	48.5308
660.000000	72.264	43.1636
670.000000	73.481	34.8780
680.000000	74.692	23.0504
690.000000	75.710	7.4976
700.000000	76.326	-11.4756
710.000000	76.361	-33.0940
720.000000	75.699	-56.0663
730.000000	74.328	-78.7343
740.000000	72.386	-99.7081
750.000000	70.128	-118.3548
762.000000	67.438	-137.5891
775.000000	65.089	-154.7891
788.000000	63.641	-168.6581
800.000000	62.987	-178.9341
812.000000	62.757	173.0801
825.000000	62.782	166.5684
838.000000	62.921	161.5641
850.000000	63.057	158.3401
862.000000	63.230	156.4954
875.000000	63.526	155.4122
885.000000	63.821	154.7625
900.000000	64.278	153.8760
912.000000	64.607	153.2419
925.000000	64.930	152.7095
938.000000	65.259	152.4976
950.000000	65.612	152.5975
962.000000	66.040	152.7163
975.000000	66.591	152.3965
988.000000	67.163	151.0339
1000.000000	67.578	148.6361
1015.000000	67.761	144.7932
1030.000000	67.543	141.6968
1044.000000	67.125	140.8131
1060.000000	66.634	142.3611
1075.000000	66.300	145.8212
1090.000000	66.158	151.0608
1106.000000	66.349	158.3386
1120.000000	66.933	165.2992
1138.000000	68.309	173.1542
1150.000000	69.539	176.6294
1172.000000	72.060	177.4563
1180.000000	72.935	175.7278
1206.000000	74.993	163.5574
1220.000000	75.358	154.7786
1241.000000	74.940	143.1804
1250.000000	74.535	139.6278
1265.000000	73.769	135.7316
1280.000000	73.030	133.8899
1315.000000	71.750	134.3611
1320.000000	71.625	134.7506
1340.000000	71.257	136.6426
1360.000000	71.050	138.6926
1380.000000	70.953	140.6664
1400.000000	70.921	142.2682
1430.000000	70.814	143.9700
1450.000000	70.643	145.5997
1475.000000	70.451	148.9219
1500.000000	70.415	152.9114
1525.000000	70.496	156.9500
1550.000000	70.707	161.2791
1575.000000	71.074	165.3505
1600.000000	71.522	168.7671
1625.000000	72.032	171.6226
1650.000000	72.601	173.8445
1675.000000	73.210	175.2380
1700.000000	73.797	175.5463
1725.000000	74.309	174.9926
1750.000000	74.720	173.6989
1775.000000	74.943	171.8196
1800.000000	74.949	170.2798
1825.000000	74.841	169.8533
1850.000000	74.738	170.4280
1875.000000	74.683	171.5391
1900.000000	74.677	172.9373
1925.000000	74.710	174.4240
1950.000000	74.763	175.8770
1975.000000	74.824	177.3245
2000.000000	74.892	178.7354
2030.000000	74.969	-179.6533
2060.000000	75.031	-178.0217
2090.000000	75.097	-176.3088
2120.000000	75.161	-174.6899
2140.000000	75.186	-173.6396
2180.000000	75.188	-171.5205
2200.000000	75.145	-170.4126
2240.000000	74.965	-167.2097
2270.000000	74.854	-163.6233
2300.000000	74.833	-159.5076
2330.000000	74.892	-155.2587
2360.000000	74.988	-150.9519
2400.000000	75.202	-144.3521
2430.000000	75.512	-139.1488
2470.000000	76.058	-132.9918
2500.000000	76.508	-128.8472
2540.000000	77.144	-123.4869
2580.000000	77.878	-117.9976
2620.000000	78.747	-112.8683
2650.000000	79.468	-109.4608
2690.000000	80.505	-105.6257
2720.000000	81.312	-103.4673
2760.000000	82.379	-101.5052
2800.000000	83.416	-100.3264
2850.000000	84.705	-99.5376
2900.000000	86.015	-99.8664
2950.000000	87.255	-101.8472
3000.000000	88.287	-105.3434
3040.000000	88.918	-108.6587
3070.000000	89.290	-111.1421
3110.000000	89.685	-114.1808
3150.000000	90.031	-116.8152
3200.000000	90.457	-119.8981
3250.000000	90.843	-123.3293
3300.000000	91.088	-127.0691
3350.000000	91.183	-130.3876
3400.000000	91.264	-132.9397
3450.000000	91.425	-135.5637
3500.000000	91.575	-139.0688
3550.000000	91.570	-143.4189
3600.000000	91.295	-147.9540
3650.000000	90.732	-151.5007
3700.000000	90.018	-153.2502
3750.000000	89.326	-153.3931
3820.000000	88.529	-152.2249
3870.000000	88.052	-151.0759
3950.000000	87.339	-148.6791
4000.000000	86.930	-146.6128
4060.000000	86.505	-143.6549
4120.000000	86.176	-140.1426
4180.000000	86.008	-136.3723
4250.000000	86.005	-132.8208
4310.000000	86.049	-130.8713
4370.000000	86.059	-129.4919
4440.000000	86.052	-127.9883
4500.000000	86.112	-126.7439
4550.000000	86.244	-126.2107
4620.000000	86.472	-127.0457
4680.000000	86.582	-129.2476
4750.000000	86.517	-132.9990
4820.000000	86.196	-137.3828
4870.000000	85.803	-140.4755
4940.000000	85.054	-144.1763
5000.000000	84.280	-146.2723
5080.000000	83.267	-147.0459
5150.000000	82.640	-146.7402
5220.000000	82.313	-146.7549
5300.000000	82.304	-147.3711
5380.000000	82.762	-149.1002
5450.000000	83.482	-152.3862
5520.000000	84.321	-157.4529
5600.000000	85.284	-164.5032
5700.000000	86.569	-173.3538
5800.000000	88.134	178.0127
5900.000000	89.805	168.1161
6000.000000	91.203	156.4675
6080.000000	91.965	146.5424
6150.000000	92.343	138.0731
6220.000000	92.473	130.3159
6300.000000	92.391	122.7971
6400.000000	92.107	115.6292
6500.000000	91.776	110.4114
6600.000000	91.438	106.2775
6700.000000	91.045	102.5652
6800.000000	90.488	99.0134
6900.000000	89.633	96.2212
7000.000000	88.453	95.6221
7100.000000	87.100	98.4388
7200.000000	85.818	104.6744
7300.000000	84.798	113.1521
7400.000000	84.095	122.3738
7500.000000	83.651	131.2510
7620.000000	83.307	140.9298
7750.000000	83.008	150.5662
7880.000000	82.728	160.0746
8000.000000	82.503	168.7939
8120.000000	82.278	177.0763
8250.000000	81.956	-174.0359
8380.000000	81.577	-164.3317
8500.000000	81.247	-154.6558
8620.000000	80.944	-144.4495
8750.000000	80.674	-131.8556
8850.000000	80.631	-120.6072
9000.000000	80.999	-104.2098
9120.000000	81.477	-94.1554
9250.000000	81.905	-85.6176
9380.000000	82.189	-77.6834
9500.000000	82.385	-70.2220
9620.000000	82.558	-62.7615
9750.000000	82.721	-54.8425
9880.000000	82.856	-47.0908
10000.000000	82.956	-40.0936
10150.000000	83.038	-31.6439
10300.000000	83.042	-23.5168
10440.000000	82.952	-16.0052
10600.000000	82.728	-7.0898
10750.000000	82.416	2.2809
10900.000000	82.095	13.6543
11060.000000	81.957	28.4359
11200.000000	82.163	41.9552
11380.000000	82.762	56.4500
11500.000000	83.185	63.8082
11720.000000	83.737	74.8141
11800.000000	83.857	78.6432
12060.000000	84.080	91.9718
12200.000000	84.180	99.9207
12410.000000	84.429	112.6392
12500.000000	84.599	118.1879
12650.000000	84.986	127.1277
12800.000000	85.484	135.0672
13150.000000	86.634	146.9572
13200.000000	86.741	147.9560
13400.000000	86.924	151.0849
13600.000000	86.706	154.2712
13800.000000	86.191	158.9681
14000.000000	85.547	165.7701
14300.000000	84.662	179.7010
14500.000000	84.310	-169.1332
14750.000000	84.302	-155.0929
15000.000000	84.669	-144.1269
15250.000000	85.026	-137.2533
15500.000000	85.089	-132.4800
15750.000000	84.878	-127.3882
16000.000000	84.618	-120.8167
16250.000000	84.574	-113.3036
16500.000000	84.853	-107.0555
16750.000000	85.258	-103.7555
17000.000000	85.605	-102.6138
17250.000000	85.987	-102.7253
17500.000000	86.486	-105.0038
17750.000000	86.915	-110.4258
18000.000000	87.090	-118.2921
18250.000000	87.061	-127.6444
18500.000000	86.966	-138.4414
18750.000000	86.872	-151.2764
19000.000000	86.736	-166.7556
19250.000000	86.456	174.8864
19500.000000	85.956	154.2396
19750.000000	85.299	134.1171
20000.000000	84.802	121.3089
