* Measurement data measured by REW V5.31.1
* Source: EXCL: Headset (USB-C to 3.5mm Headphone Jack Adapter), MICROPHONE (Master Volume), 0, volume: 0.410. Timing signal peak level -35.2 dBFS, measurement signal peak level -30.9 dBFS
* Format: 256k Log Swept Sine, 1 sweep at -12.0 dBFS using an acoustic timing reference
* Dated: Oct 29, 2024 8:20:58 PM
* REW Settings:
*  C-weighting compensation: Off
*  Target level: 75.0 dB
* Note: Delay -0.0992 ms (-34 mm, -1.34 in) using estimated IR delay relative to Acoustic reference played from HEADPHONE L with no timing offset Clock adjustment: -57.3 ppm
* Measurement: L Ploopy DSP
* Smoothing: 1/12 octave
* Frequency Step: 1/48 octave
* Start Frequency: 20.000 Hz
*
* Freq(Hz)	SPL(dB)	Phase(degrees)
20.000000	67.559	-96.9025
20.299999	67.738	-97.7345
20.600000	67.926	-98.7407
20.900000	68.102	-99.9066
21.200001	68.251	-101.1489
21.400000	68.335	-101.9677
21.799999	68.477	-103.4755
22.000000	68.541	-104.1454
22.400000	68.676	-105.3532
22.700001	68.788	-106.2179
23.000000	68.903	-107.1144
23.299999	69.014	-108.0686
23.600000	69.111	-109.0630
24.000000	69.214	-110.3641
24.299999	69.276	-111.2537
24.700001	69.356	-112.2795
25.000000	69.427	-112.9544
25.400000	69.544	-113.8270
25.799999	69.684	-114.7797
26.200001	69.831	-115.8663
26.500000	69.939	-116.7535
26.900000	70.076	-117.9841
27.200001	70.177	-118.9206
27.600000	70.315	-120.1893
28.000000	70.457	-121.5074
28.500000	70.628	-123.2383
29.000000	70.784	-124.9895
29.500000	70.931	-126.6523
30.000000	71.094	-128.2208
30.400000	71.244	-129.4914
30.700001	71.366	-130.5085
31.100000	71.536	-131.9923
31.500000	71.705	-133.6350
32.000000	71.907	-135.9062
32.500000	72.100	-138.4417
33.000000	72.278	-141.3136
33.500000	72.423	-144.5909
34.000000	72.511	-148.2777
34.500000	72.517	-152.3016
35.000000	72.421	-156.5324
35.500000	72.210	-160.7948
36.000000	71.877	-164.8720
36.500000	71.426	-168.5201
37.000000	70.876	-171.5014
37.500000	70.258	-173.6234
38.200001	69.355	-174.9549
38.700001	68.746	-174.7649
39.500000	67.936	-172.9604
40.000000	67.556	-171.2895
40.599998	67.220	-169.0909
41.200001	66.994	-166.8969
41.799999	66.855	-164.8706
42.500000	66.768	-162.8427
43.099998	66.734	-161.4085
43.700001	66.725	-160.2468
44.400002	66.729	-159.1994
45.000000	66.740	-158.4861
45.500000	66.758	-158.0052
46.200001	66.795	-157.5850
46.799999	66.808	-157.4220
47.500000	66.791	-157.1270
48.200001	66.796	-156.5244
48.700001	66.840	-156.0917
49.400002	66.926	-155.7838
50.000000	66.979	-155.7408
50.799999	67.017	-155.6447
51.500000	67.051	-155.4776
52.200001	67.091	-155.3452
53.000000	67.136	-155.2530
53.799999	67.185	-155.2593
54.500000	67.221	-155.3784
55.200001	67.241	-155.5139
56.000000	67.256	-155.5656
57.000000	67.290	-155.4779
58.000000	67.347	-155.3593
59.000000	67.406	-155.2653
60.000000	67.460	-155.0938
60.799999	67.515	-154.9376
61.500000	67.567	-154.9017
62.200001	67.610	-154.9891
63.000000	67.637	-155.1640
64.000000	67.646	-155.3768
65.000000	67.637	-155.5563
66.000000	67.618	-155.6446
67.000000	67.597	-155.6022
68.000000	67.577	-155.3945
69.000000	67.565	-154.9662
70.000000	67.569	-154.3142
71.000000	67.599	-153.4395
72.000000	67.674	-152.3635
73.000000	67.819	-151.2560
74.000000	68.040	-150.4344
75.000000	68.306	-150.1735
76.199997	68.621	-150.6430
77.500000	68.908	-151.7830
78.800003	69.126	-153.2090
80.000000	69.270	-154.5035
81.199997	69.376	-155.6433
82.500000	69.470	-156.7043
83.800003	69.548	-157.7101
85.000000	69.603	-158.6696
86.199997	69.640	-159.6742
87.500000	69.664	-160.7767
88.500000	69.677	-161.6048
90.000000	69.700	-162.8484
91.199997	69.714	-163.8831
92.500000	69.710	-165.0190
93.800003	69.681	-166.0891
95.000000	69.640	-166.9579
96.199997	69.597	-167.7208
97.500000	69.556	-168.4499
98.800003	69.532	-169.1053
100.000000	69.529	-169.7067
101.500000	69.551	-170.6478
103.000000	69.565	-172.0468
104.400002	69.513	-173.7811
106.000000	69.319	-175.8801
107.500000	69.002	-177.3311
109.000000	68.620	-177.6933
110.599998	68.266	-176.7602
112.000000	68.087	-175.2897
113.800003	68.044	-173.4894
115.000000	68.086	-172.6492
117.199997	68.210	-171.7623
118.000000	68.257	-171.6002
120.599998	68.340	-171.5672
122.000000	68.326	-171.5688
124.099998	68.308	-171.4004
125.000000	68.321	-171.3708
126.500000	68.372	-171.4975
128.000000	68.446	-171.8656
131.500000	68.603	-173.6452
132.000000	68.611	-174.0030
134.000000	68.581	-175.6236
136.000000	68.442	-177.2968
138.000000	68.209	-178.6489
140.000000	67.911	-179.3730
143.000000	67.440	-179.0515
145.000000	67.181	-178.1452
147.500000	66.968	-176.7085
150.000000	66.873	-175.2611
152.500000	66.854	-173.9745
155.000000	66.859	-172.9661
157.500000	66.868	-172.2039
160.000000	66.885	-171.6815
162.500000	66.906	-171.2911
165.000000	66.929	-170.8491
167.500000	66.958	-170.3960
170.000000	66.988	-170.0882
172.500000	67.014	-169.9534
175.000000	67.029	-169.8259
177.500000	67.037	-169.5812
180.000000	67.051	-169.3476
182.500000	67.066	-169.2569
185.000000	67.075	-169.3056
187.500000	67.065	-169.4675
190.000000	67.027	-169.6802
192.500000	66.967	-169.8333
195.000000	66.893	-169.8328
197.500000	66.817	-169.6459
200.000000	66.751	-169.3115
203.000000	66.690	-168.7890
206.000000	66.644	-168.1924
209.000000	66.612	-167.6152
212.000000	66.596	-167.1102
214.000000	66.593	-166.7816
218.000000	66.592	-166.0552
220.000000	66.589	-165.6914
224.000000	66.580	-165.0740
227.000000	66.567	-164.6956
230.000000	66.544	-164.3071
233.000000	66.509	-163.7744
236.000000	66.464	-163.0240
240.000000	66.416	-161.9151
243.000000	66.409	-161.2534
247.000000	66.432	-160.4435
250.000000	66.464	-159.7220
254.000000	66.520	-158.6188
258.000000	66.594	-157.4121
262.000000	66.690	-156.2017
265.000000	66.783	-155.3490
269.000000	66.942	-154.3043
272.000000	67.089	-153.6186
276.000000	67.315	-152.9567
280.000000	67.548	-152.7002
285.000000	67.792	-152.9117
290.000000	67.945	-153.3073
295.000000	68.045	-153.3247
300.000000	68.186	-152.8830
304.000000	68.369	-152.5097
307.000000	68.544	-152.4219
311.000000	68.802	-152.7177
315.000000	69.046	-153.5359
320.000000	69.270	-155.1243
325.000000	69.374	-156.9004
330.000000	69.377	-158.3836
335.000000	69.330	-159.3088
340.000000	69.294	-159.6641
345.000000	69.318	-159.6279
350.000000	69.428	-159.5084
355.000000	69.621	-159.6349
360.000000	69.874	-160.2600
365.000000	70.151	-161.5159
370.000000	70.418	-163.4417
375.000000	70.643	-166.0319
382.000000	70.843	-170.6768
387.000000	70.869	-174.6090
395.000000	70.630	178.3690
400.000000	70.257	173.8539
406.000000	69.544	168.8980
412.000000	68.542	165.2883
418.000000	67.313	164.0761
425.000000	65.807	166.8825
431.000000	64.751	172.8276
437.000000	64.157	-179.6880
444.000000	64.069	-171.9467
450.000000	64.306	-167.4412
455.000000	64.577	-165.2052
462.000000	64.916	-163.8345
468.000000	65.098	-163.6680
475.000000	65.155	-163.9158
482.000000	65.062	-164.0116
487.000000	64.931	-163.7080
494.000000	64.704	-162.4990
500.000000	64.528	-160.5751
508.000000	64.464	-156.6977
515.000000	64.709	-152.6805
522.000000	65.274	-149.5968
530.000000	66.098	-149.1109
538.000000	66.747	-152.1067
545.000000	66.979	-156.3264
552.000000	66.883	-160.6132
560.000000	66.481	-164.4528
570.000000	65.780	-167.1423
580.000000	65.047	-168.0992
590.000000	64.337	-168.2099
600.000000	63.609	-167.9789
608.000000	62.976	-167.6370
615.000000	62.369	-167.2144
622.000000	61.699	-166.6897
630.000000	60.830	-165.9976
640.000000	59.526	-164.7987
650.000000	58.084	-161.6040
660.000000	57.602	-144.9104
670.000000	59.868	-64.8936
680.000000	63.643	-38.1942
690.000000	67.134	-41.5491
700.000000	69.843	-51.9071
710.000000	71.665	-65.4080
720.000000	72.605	-79.6632
730.000000	72.790	-92.5642
740.000000	72.471	-102.6766
750.000000	71.935	-109.6354
762.000000	71.314	-114.5183
775.000000	70.853	-117.0928
788.000000	70.611	-118.4430
800.000000	70.502	-119.4453
812.000000	70.432	-120.4323
825.000000	70.358	-121.4063
838.000000	70.275	-122.1697
850.000000	70.206	-122.6279
862.000000	70.161	-122.9403
875.000000	70.135	-123.3012
885.000000	70.114	-123.6454
900.000000	70.059	-124.1931
912.000000	69.989	-124.5406
925.000000	69.893	-124.7412
938.000000	69.787	-124.7282
950.000000	69.691	-124.5234
962.000000	69.606	-124.1765
975.000000	69.528	-123.7549
988.000000	69.444	-123.4182
1000.000000	69.324	-123.1057
1015.000000	69.105	-122.0863
1030.000000	68.910	-119.7672
1044.000000	68.880	-116.8057
1060.000000	69.047	-113.5868
1075.000000	69.322	-111.1771
1090.000000	69.670	-109.2022
1106.000000	70.138	-107.5303
1120.000000	70.636	-106.6496
1138.000000	71.384	-106.7225
1150.000000	71.925	-107.7709
1172.000000	72.884	-112.3868
1180.000000	73.163	-115.0343
1206.000000	73.411	-126.3706
1220.000000	72.950	-132.4878
1241.000000	71.570	-137.7955
1250.000000	70.874	-138.1448
1265.000000	69.794	-136.6233
1280.000000	68.943	-133.4412
1315.000000	67.918	-124.5422
1320.000000	67.852	-123.3863
1340.000000	67.692	-119.2861
1360.000000	67.619	-115.8857
1380.000000	67.572	-112.9829
1400.000000	67.503	-110.3896
1430.000000	67.330	-105.9986
1450.000000	67.260	-102.2408
1475.000000	67.329	-97.1775
1500.000000	67.551	-92.3766
1525.000000	67.888	-87.8866
1550.000000	68.348	-83.9299
1575.000000	68.873	-80.9037
1600.000000	69.416	-78.6490
1625.000000	69.961	-77.1014
1650.000000	70.490	-76.2317
1675.000000	70.982	-76.0175
1700.000000	71.410	-76.3684
1725.000000	71.761	-77.1973
1750.000000	71.981	-78.5299
1775.000000	71.994	-79.7157
1800.000000	71.879	-79.7074
1825.000000	71.810	-78.4437
1850.000000	71.864	-76.7210
1875.000000	72.015	-75.0765
1900.000000	72.225	-73.6840
1925.000000	72.462	-72.6240
1950.000000	72.701	-71.8293
1975.000000	72.943	-71.2466
2000.000000	73.176	-70.9491
2030.000000	73.414	-70.8642
2060.000000	73.611	-70.8216
2090.000000	73.792	-70.8642
2120.000000	73.926	-71.1019
2140.000000	73.981	-71.2481
2180.000000	74.013	-71.3747
2200.000000	73.983	-71.1984
2240.000000	73.916	-69.7468
2270.000000	73.966	-68.0737
2300.000000	74.105	-66.5046
2330.000000	74.282	-65.3158
2360.000000	74.438	-64.2870
2400.000000	74.681	-62.6032
2430.000000	74.923	-61.6597
2470.000000	75.209	-61.1090
2500.000000	75.365	-60.8012
2540.000000	75.530	-60.0291
2580.000000	75.735	-58.7497
2620.000000	76.023	-57.4670
2650.000000	76.278	-56.6934
2690.000000	76.651	-56.0616
2720.000000	76.929	-55.9532
2760.000000	77.266	-56.1661
2800.000000	77.565	-56.5444
2850.000000	77.939	-57.0755
2900.000000	78.340	-58.1824
2950.000000	78.683	-60.2423
3000.000000	78.856	-63.0454
3040.000000	78.835	-65.3067
3070.000000	78.736	-66.7572
3110.000000	78.523	-68.0936
3150.000000	78.285	-68.6168
3200.000000	78.051	-68.5071
3250.000000	77.885	-68.3479
3300.000000	77.676	-68.1895
3350.000000	77.410	-67.1592
3400.000000	77.261	-64.9024
3450.000000	77.358	-62.7347
3500.000000	77.589	-61.9484
3550.000000	77.758	-62.6549
3600.000000	77.709	-64.1740
3650.000000	77.393	-65.1642
3700.000000	76.948	-64.5752
3750.000000	76.562	-62.5401
3820.000000	76.262	-58.7646
3870.000000	76.182	-56.1721
3950.000000	76.122	-52.4807
4000.000000	76.093	-50.0574
4060.000000	76.098	-46.8295
4120.000000	76.189	-43.1453
4180.000000	76.445	-39.1631
4250.000000	76.976	-35.3597
4310.000000	77.496	-33.4958
4370.000000	77.969	-32.5656
4440.000000	78.466	-31.8242
4500.000000	78.939	-31.1829
4550.000000	79.418	-31.0514
4620.000000	80.125	-32.4294
4680.000000	80.618	-35.1424
4750.000000	80.954	-39.4300
4820.000000	80.997	-44.1612
4870.000000	80.848	-47.3714
4940.000000	80.425	-51.1188
5000.000000	79.909	-53.2868
5080.000000	79.127	-54.2005
5150.000000	78.508	-53.4461
5220.000000	78.007	-51.9832
5300.000000	77.559	-49.7155
5380.000000	77.284	-47.0732
5450.000000	77.190	-45.1097
5520.000000	77.149	-43.9091
5600.000000	77.042	-43.2214
5700.000000	76.782	-42.1291
5800.000000	76.568	-40.2571
5900.000000	76.509	-38.7937
6000.000000	76.454	-38.5910
6080.000000	76.293	-38.9987
6150.000000	76.039	-39.2634
6220.000000	75.701	-39.0345
6300.000000	75.293	-37.8634
6400.000000	74.918	-35.3405
6500.000000	74.801	-32.9316
6600.000000	74.872	-31.9128
6700.000000	74.973	-32.8614
6800.000000	74.902	-35.7845
6900.000000	74.444	-39.7789
7000.000000	73.512	-43.0907
7100.000000	72.209	-44.0965
7200.000000	70.755	-42.1076
7300.000000	69.372	-37.3442
7400.000000	68.232	-30.6115
7500.000000	67.426	-23.1025
7620.000000	66.863	-14.6760
7750.000000	66.528	-7.2638
7880.000000	66.261	-0.9228
8000.000000	66.119	4.8098
8120.000000	66.160	9.4943
8250.000000	66.218	12.2852
8380.000000	66.100	13.7577
8500.000000	65.946	14.7971
8620.000000	65.897	14.5803
8750.000000	65.794	11.2302
8850.000000	65.380	6.4986
9000.000000	63.768	-0.8371
9120.000000	61.560	-2.5783
9250.000000	58.521	5.3396
9380.000000	55.422	25.0625
9500.000000	53.044	47.1174
9620.000000	51.398	72.3947
9750.000000	50.852	104.4623
9880.000000	51.730	133.7759
10000.000000	53.381	154.4831
10150.000000	55.926	172.4558
10300.000000	58.513	-177.3724
10440.000000	60.727	-172.9412
10600.000000	62.974	-171.6390
10750.000000	64.769	-173.3973
10900.000000	66.162	-177.7366
11060.000000	67.070	175.5402
11200.000000	67.286	168.9789
11380.000000	66.746	161.7301
11500.000000	65.932	159.0161
11720.000000	63.876	161.6381
11800.000000	63.126	165.7013
12060.000000	61.949	-171.2584
12200.000000	62.513	-157.7963
12410.000000	64.432	-143.8377
12500.000000	65.412	-140.4847
12650.000000	67.049	-137.9555
12800.000000	68.551	-138.7448
13150.000000	70.948	-149.7029
13200.000000	71.133	-151.9124
13400.000000	71.458	-161.3286
13600.000000	71.156	-170.4500
13800.000000	70.379	-178.1380
14000.000000	69.338	175.8891
14300.000000	67.638	168.6847
14500.000000	66.419	163.7084
14750.000000	64.559	157.0207
15000.000000	62.153	153.9161
15250.000000	60.069	-169.0022
15500.000000	60.373	-103.8089
15750.000000	62.176	-102.3049
16000.000000	63.807	-108.6904
16250.000000	64.839	-117.1473
16500.000000	65.076	-125.7792
16750.000000	64.682	-131.2355
17000.000000	64.656	-131.8046
17250.000000	65.681	-133.1196
17500.000000	66.760	-140.9323
17750.000000	66.945	-153.1888
18000.000000	66.167	-165.2651
18250.000000	64.843	-174.3823
18500.000000	63.666	179.6468
18750.000000	63.402	174.2409
19000.000000	64.137	165.7406
19250.000000	65.295	152.2535
19500.000000	66.383	134.9043
19750.000000	67.167	118.7070
20000.000000	67.556	111.8090
