* Measurement data measured by REW V5.20.13
* Source: EXCL: Headset (USB-C to 3.5mm Headphone Jack Adapter), MICROPHONE (Master Volume), 0, volume: 0.260. Timing signal peak level -32.5 dBFS, measurement signal peak level -32.0 dBFS
* Format: 256k Log Swept Sine, 1 sweep at -20.0 dBFS using an acoustic timing reference
* Dated: May 29, 2023 5:06:36 PM
* REW Settings:
*  C-weighting compensation: Off
*  Target level: 75.0 dB
* Note: Koss PortaPro Yaxi Pads
* Measurement: Koss PortaPro Yaxi Pads L
* Smoothing: 1/12 octave
* Frequency Step: 1/48 octave
* Start Frequency: 20.000 Hz
*
* Freq(Hz)	SPL(dB)	Phase(degrees)
20.000000	65.586	-21.4687
20.299999	65.781	-23.4905
20.600000	65.930	-25.2820
20.900000	66.072	-26.7489
21.200001	66.243	-27.9888
21.400000	66.377	-28.8215
21.799999	66.665	-30.6838
22.000000	66.800	-31.7489
22.400000	67.010	-34.0195
22.700001	67.108	-35.5484
23.000000	67.177	-36.6290
23.299999	67.267	-37.1737
23.600000	67.418	-37.3128
24.000000	67.744	-37.3064
24.299999	68.059	-37.5623
24.700001	68.494	-38.5487
25.000000	68.780	-39.7108
25.400000	69.079	-41.4835
25.799999	69.303	-43.0767
26.200001	69.501	-44.2973
26.500000	69.655	-45.0339
26.900000	69.873	-45.9415
27.200001	70.037	-46.6459
27.600000	70.246	-47.6200
28.000000	70.444	-48.5683
28.500000	70.696	-49.7152
29.000000	70.955	-51.0048
29.500000	71.187	-52.5457
30.000000	71.365	-54.1315
30.400000	71.485	-55.2239
30.700001	71.578	-55.9081
31.100000	71.725	-56.7358
31.500000	71.895	-57.6129
32.000000	72.112	-58.9120
32.500000	72.306	-60.3533
33.000000	72.478	-61.7561
33.500000	72.645	-63.0867
34.000000	72.807	-64.4229
34.500000	72.946	-65.7494
35.000000	73.061	-66.9182
35.500000	73.178	-67.8145
36.000000	73.327	-68.5191
36.500000	73.514	-69.2356
37.000000	73.717	-70.1249
37.500000	73.914	-71.1999
38.200001	74.151	-72.8376
38.700001	74.296	-73.9463
39.500000	74.520	-75.4192
40.000000	74.678	-76.1987
40.599998	74.889	-77.1622
41.200001	75.098	-78.2767
41.799999	75.278	-79.4729
42.500000	75.453	-80.7465
43.099998	75.594	-81.6327
43.700001	75.750	-82.4111
44.400002	75.952	-83.4102
45.000000	76.115	-84.4924
45.500000	76.221	-85.5158
46.200001	76.318	-86.8772
46.799999	76.385	-87.7717
47.500000	76.500	-88.5925
48.200001	76.663	-89.5554
48.700001	76.783	-90.4497
49.400002	76.931	-91.8727
50.000000	77.043	-93.0988
50.799999	77.189	-94.7377
51.500000	77.299	-96.2199
52.200001	77.377	-97.5668
53.000000	77.462	-98.7035
53.799999	77.586	-99.5719
54.500000	77.717	-100.3663
55.200001	77.838	-101.2056
56.000000	77.961	-102.0582
57.000000	78.140	-102.9213
58.000000	78.366	-104.0988
59.000000	78.534	-106.0606
60.000000	78.553	-108.1386
60.799999	78.521	-109.3526
61.500000	78.514	-110.1589
62.200001	78.537	-110.9200
63.000000	78.591	-111.8719
64.000000	78.673	-113.2181
65.000000	78.749	-114.6015
66.000000	78.824	-115.8967
67.000000	78.901	-117.1161
68.000000	78.976	-118.2784
69.000000	79.047	-119.4086
70.000000	79.112	-120.5692
71.000000	79.161	-121.7655
72.000000	79.198	-122.9517
73.000000	79.230	-124.1198
74.000000	79.257	-125.2684
75.000000	79.282	-126.3775
76.199997	79.305	-127.6285
77.500000	79.321	-128.8267
78.800003	79.334	-129.8027
80.000000	79.359	-130.5410
81.199997	79.404	-131.2802
82.500000	79.457	-132.2034
83.800003	79.501	-133.2027
85.000000	79.539	-134.1468
86.199997	79.577	-135.1195
87.500000	79.616	-136.2090
88.500000	79.642	-137.0609
90.000000	79.672	-138.3265
91.199997	79.689	-139.3080
92.500000	79.702	-140.3491
93.800003	79.712	-141.3859
95.000000	79.718	-142.3564
96.199997	79.718	-143.3442
97.500000	79.707	-144.3919
98.800003	79.687	-145.3587
100.000000	79.664	-146.1625
101.500000	79.631	-147.0576
103.000000	79.589	-147.8288
104.400002	79.543	-148.4255
106.000000	79.493	-148.9643
107.500000	79.459	-149.3689
109.000000	79.443	-149.7337
110.599998	79.450	-150.1219
112.000000	79.474	-150.4966
113.800003	79.522	-151.0865
115.000000	79.555	-151.5639
117.199997	79.599	-152.6092
118.000000	79.607	-153.0297
120.599998	79.603	-154.4200
122.000000	79.590	-155.1316
124.099998	79.563	-156.0942
125.000000	79.550	-156.4590
126.500000	79.528	-157.0038
128.000000	79.508	-157.4877
131.500000	79.492	-158.5361
132.000000	79.494	-158.6869
134.000000	79.503	-159.2869
136.000000	79.515	-159.8707
138.000000	79.527	-160.4663
140.000000	79.534	-161.1060
143.000000	79.536	-162.1118
145.000000	79.530	-162.7794
147.500000	79.514	-163.6071
150.000000	79.489	-164.4404
152.500000	79.461	-165.2692
155.000000	79.438	-166.0545
157.500000	79.420	-166.7794
160.000000	79.400	-167.4638
162.500000	79.371	-168.1198
165.000000	79.338	-168.7561
167.500000	79.305	-169.3895
170.000000	79.271	-170.0311
172.500000	79.234	-170.6722
175.000000	79.192	-171.2922
177.500000	79.146	-171.8827
180.000000	79.097	-172.4346
182.500000	79.047	-172.9276
185.000000	79.003	-173.3578
187.500000	78.967	-173.7710
190.000000	78.936	-174.2283
192.500000	78.905	-174.7475
195.000000	78.869	-175.3034
197.500000	78.823	-175.8624
200.000000	78.765	-176.3953
203.000000	78.682	-176.9655
206.000000	78.592	-177.4343
209.000000	78.504	-177.8007
212.000000	78.423	-178.0793
214.000000	78.376	-178.2281
218.000000	78.298	-178.4721
220.000000	78.264	-178.5826
224.000000	78.199	-178.8093
227.000000	78.154	-178.9940
230.000000	78.112	-179.1905
233.000000	78.072	-179.3811
236.000000	78.029	-179.5493
240.000000	77.965	-179.7782
243.000000	77.917	-179.9932
247.000000	77.860	179.6953
250.000000	77.823	179.4795
254.000000	77.773	179.2382
258.000000	77.721	179.0626
262.000000	77.669	178.9409
265.000000	77.630	178.8539
269.000000	77.578	178.6992
272.000000	77.541	178.5569
276.000000	77.493	178.3625
280.000000	77.448	178.1862
285.000000	77.390	177.9976
290.000000	77.330	177.8283
295.000000	77.271	177.6712
300.000000	77.214	177.5220
304.000000	77.168	177.3965
307.000000	77.133	177.3025
311.000000	77.086	177.1919
315.000000	77.039	177.1106
320.000000	76.985	177.0460
325.000000	76.933	176.9979
330.000000	76.883	176.9488
335.000000	76.830	176.8997
340.000000	76.775	176.8507
345.000000	76.723	176.8010
350.000000	76.675	176.7546
355.000000	76.632	176.7177
360.000000	76.591	176.6914
365.000000	76.547	176.6461
370.000000	76.497	176.5497
375.000000	76.440	176.4384
382.000000	76.348	176.3710
387.000000	76.282	176.4032
395.000000	76.184	176.5267
400.000000	76.129	176.6198
406.000000	76.069	176.7567
412.000000	76.014	176.9373
418.000000	75.960	177.1509
425.000000	75.901	177.4023
431.000000	75.854	177.5898
437.000000	75.811	177.7506
444.000000	75.763	177.9336
450.000000	75.727	178.0958
455.000000	75.697	178.2169
462.000000	75.654	178.3377
468.000000	75.609	178.4030
475.000000	75.539	178.4859
482.000000	75.445	178.6944
487.000000	75.375	178.9942
494.000000	75.299	179.5920
500.000000	75.261	-179.8626
508.000000	75.242	-179.2267
515.000000	75.239	-178.7645
522.000000	75.241	-178.3772
530.000000	75.242	-178.0209
538.000000	75.238	-177.7324
545.000000	75.230	-177.5079
552.000000	75.220	-177.2950
560.000000	75.207	-177.0677
570.000000	75.186	-176.8085
580.000000	75.160	-176.5394
590.000000	75.128	-176.2180
600.000000	75.094	-175.8222
608.000000	75.070	-175.4679
615.000000	75.055	-175.1560
622.000000	75.044	-174.8595
630.000000	75.035	-174.5434
640.000000	75.024	-174.1707
650.000000	75.015	-173.8150
660.000000	75.006	-173.4707
670.000000	74.996	-173.1273
680.000000	74.984	-172.7752
690.000000	74.970	-172.4049
700.000000	74.957	-172.0112
710.000000	74.950	-171.6058
720.000000	74.948	-171.2161
730.000000	74.949	-170.8553
740.000000	74.950	-170.5123
750.000000	74.950	-170.1763
762.000000	74.946	-169.7846
775.000000	74.940	-169.3729
788.000000	74.931	-168.9416
800.000000	74.926	-168.4886
812.000000	74.929	-167.9907
825.000000	74.944	-167.4627
838.000000	74.970	-167.0111
850.000000	74.996	-166.6817
862.000000	75.013	-166.4151
875.000000	75.017	-166.1443
885.000000	75.010	-165.9113
900.000000	74.995	-165.4872
912.000000	74.984	-165.0896
925.000000	74.977	-164.6284
938.000000	74.975	-164.1648
950.000000	74.974	-163.7355
962.000000	74.970	-163.2731
975.000000	74.971	-162.7170
988.000000	74.981	-162.1409
1000.000000	75.000	-161.6356
1015.000000	75.027	-161.0580
1030.000000	75.052	-160.5140
1044.000000	75.074	-160.0066
1060.000000	75.095	-159.4092
1075.000000	75.116	-158.8234
1090.000000	75.140	-158.2095
1106.000000	75.175	-157.5455
1120.000000	75.212	-156.9837
1138.000000	75.266	-156.3022
1150.000000	75.303	-155.8682
1172.000000	75.370	-155.1018
1180.000000	75.394	-154.8297
1206.000000	75.473	-153.9302
1220.000000	75.519	-153.4231
1241.000000	75.596	-152.6599
1250.000000	75.632	-152.3457
1265.000000	75.695	-151.8519
1280.000000	75.759	-151.3933
1315.000000	75.907	-150.3918
1320.000000	75.927	-150.2517
1340.000000	76.009	-149.6867
1360.000000	76.094	-149.1247
1380.000000	76.184	-148.6057
1400.000000	76.268	-148.1341
1430.000000	76.380	-147.3808
1450.000000	76.458	-146.7969
1475.000000	76.570	-146.0312
1500.000000	76.699	-145.2861
1525.000000	76.839	-144.5618
1550.000000	76.992	-143.8809
1575.000000	77.157	-143.2697
1600.000000	77.336	-142.7510
1625.000000	77.523	-142.3636
1650.000000	77.708	-142.1189
1675.000000	77.886	-141.9836
1700.000000	78.056	-141.9251
1725.000000	78.219	-141.9206
1750.000000	78.377	-141.9616
1775.000000	78.532	-142.0629
1800.000000	78.680	-142.2359
1825.000000	78.816	-142.4510
1850.000000	78.941	-142.6568
1875.000000	79.062	-142.8250
1900.000000	79.187	-142.9534
1925.000000	79.326	-143.0855
1950.000000	79.480	-143.3130
1975.000000	79.637	-143.7267
2000.000000	79.776	-144.3499
2030.000000	79.900	-145.2272
2060.000000	79.988	-146.0463
2090.000000	80.056	-146.7700
2120.000000	80.111	-147.4084
2140.000000	80.142	-147.7696
2180.000000	80.216	-148.4076
2200.000000	80.257	-148.7481
2240.000000	80.326	-149.5108
2270.000000	80.358	-150.0334
2300.000000	80.390	-150.4281
2330.000000	80.438	-150.7745
2360.000000	80.500	-151.2057
2400.000000	80.571	-152.0020
2430.000000	80.598	-152.6735
2470.000000	80.606	-153.4697
2500.000000	80.610	-153.9713
2540.000000	80.619	-154.6343
2580.000000	80.618	-155.3349
2620.000000	80.601	-156.0002
2650.000000	80.578	-156.4477
2690.000000	80.535	-156.9340
2720.000000	80.499	-157.1832
2760.000000	80.465	-157.3651
2800.000000	80.456	-157.5074
2850.000000	80.462	-157.7862
2900.000000	80.468	-158.0732
2950.000000	80.489	-158.2766
3000.000000	80.538	-158.4661
3040.000000	80.603	-158.6358
3070.000000	80.672	-158.8053
3110.000000	80.793	-159.1859
3150.000000	80.939	-159.8583
3200.000000	81.125	-161.2035
3250.000000	81.286	-163.0844
3300.000000	81.401	-165.4144
3350.000000	81.457	-168.0701
3400.000000	81.453	-170.9177
3450.000000	81.396	-173.8902
3500.000000	81.285	-176.9493
3550.000000	81.124	-179.9642
3600.000000	80.947	177.0750
3650.000000	80.779	173.8974
3700.000000	80.602	170.2078
3750.000000	80.378	165.8775
3820.000000	79.917	158.8290
3870.000000	79.474	153.1694
3950.000000	78.620	142.0410
4000.000000	77.959	132.5835
4060.000000	76.916	117.4053
4120.000000	75.490	96.8108
4180.000000	73.622	69.8280
4250.000000	71.095	31.4643
4310.000000	69.427	-2.7131
4370.000000	69.230	-31.9139
4440.000000	70.554	-55.6019
4500.000000	72.047	-68.3292
4550.000000	73.223	-75.5732
4620.000000	74.676	-82.7799
4680.000000	75.781	-87.3312
4750.000000	76.997	-91.5107
4820.000000	78.212	-95.2021
4870.000000	79.085	-98.0275
4940.000000	80.272	-102.8695
5000.000000	81.197	-108.1706
5080.000000	82.210	-116.9257
5150.000000	82.845	-125.8192
5220.000000	83.227	-135.3685
5300.000000	83.352	-146.4052
5380.000000	83.178	-156.8623
5450.000000	82.833	-165.1751
5520.000000	82.357	-172.6703
5600.000000	81.693	179.5939
5700.000000	80.683	171.0602
5800.000000	79.450	164.1910
5900.000000	78.027	159.5419
6000.000000	76.525	157.0257
6080.000000	75.318	156.1899
6150.000000	74.239	156.4012
6220.000000	73.129	157.8120
6300.000000	71.867	161.0493
6400.000000	70.445	167.0350
6500.000000	69.321	174.3043
6600.000000	68.546	-177.6581
6700.000000	68.173	-169.4586
6800.000000	68.192	-162.1166
6900.000000	68.446	-156.5434
7000.000000	68.714	-152.8757
7100.000000	68.869	-150.3405
7200.000000	68.923	-148.0955
7300.000000	68.931	-145.8617
7400.000000	68.912	-143.6491
7500.000000	68.868	-141.3822
7620.000000	68.804	-138.4570
7750.000000	68.778	-134.9778
7880.000000	68.875	-131.5671
8000.000000	69.057	-129.2408
8120.000000	69.216	-128.0581
8250.000000	69.255	-127.6930
8380.000000	69.129	-127.4960
8500.000000	68.925	-127.0376
8620.000000	68.688	-126.4530
8750.000000	68.384	-125.9471
8850.000000	68.075	-125.5415
9000.000000	67.450	-124.0123
9120.000000	66.902	-121.2645
9250.000000	66.475	-116.9720
9380.000000	66.389	-112.5873
9500.000000	66.578	-109.7168
9620.000000	66.877	-108.6534
9750.000000	67.160	-109.5829
9880.000000	67.291	-112.1715
10000.000000	67.242	-115.3751
10150.000000	66.975	-119.6337
10300.000000	66.558	-123.6589
10440.000000	66.112	-127.1567
10600.000000	65.603	-131.2313
10750.000000	65.111	-135.5565
10900.000000	64.515	-140.2217
11060.000000	63.661	-144.4419
11200.000000	62.698	-145.9086
11380.000000	61.376	-142.4989
11500.000000	60.817	-136.6701
11720.000000	61.597	-122.5065
11800.000000	62.438	-117.8354
12060.000000	65.825	-109.9426
12200.000000	67.561	-111.1497
12410.000000	69.676	-119.3627
12500.000000	70.361	-124.6796
12650.000000	71.193	-134.9057
12800.000000	71.664	-145.6901
13150.000000	71.715	-168.1160
13200.000000	71.641	-170.8351
13400.000000	71.218	179.3847
13600.000000	70.635	171.0633
13800.000000	69.924	163.9355
14000.000000	69.120	157.8101
14300.000000	67.828	149.7516
14500.000000	66.942	144.4287
14750.000000	65.782	137.1140
15000.000000	64.506	128.5122
15250.000000	63.052	117.9232
15500.000000	61.302	104.9312
15750.000000	59.120	89.6855
16000.000000	56.517	71.1729
16250.000000	53.739	46.7892
16500.000000	51.301	16.0521
16750.000000	50.001	-17.0139
17000.000000	50.083	-46.7832
17250.000000	50.837	-70.2428
17500.000000	51.721	-87.7030
17750.000000	52.642	-101.1256
18000.000000	53.644	-112.8973
18250.000000	54.735	-125.0869
18500.000000	55.910	-139.1135
18750.000000	57.162	-156.0818
19000.000000	58.407	-177.0977
19250.000000	59.477	157.3173
19500.000000	60.210	128.7998
19750.000000	60.566	102.4656
