* Measurement data measured by REW V5.20.13
* Source: EXCL: Headset (USB-C to 3.5mm Headphone Jack Adapter), MICROPHONE (Master Volume), 0, volume: 0.260. Timing signal peak level -34.1 dBFS, measurement signal peak level -30.5 dBFS
* Format: 256k Log Swept Sine, 1 sweep at -12.0 dBFS using an acoustic timing reference
* Dated: Mar 2, 2024 12:33:48 PM
* REW Settings:
*  C-weighting compensation: Off
*  Target level: 75.0 dB
* Note: Delay -0.0345 ms (-12 mm, -0.47 in) using estimated IR delay relative to Acoustic reference played from  L with no timing offset Clock adjustment: -51.9 ppm
* Measurement: Orthrus 5m Nylon Foam Front
* Smoothing: 1/12 octave
* Frequency Step: 1/48 octave
* Start Frequency: 20.000 Hz
*
* Freq(Hz)	SPL(dB)	Phase(degrees)
20.000000	73.393	144.2333
20.299999	73.555	142.4866
20.600000	73.709	140.8433
20.900000	73.863	139.3031
21.200001	74.024	137.8250
21.400000	74.137	136.8418
21.799999	74.367	134.8112
22.000000	74.479	133.7491
22.400000	74.688	131.5521
22.700001	74.825	129.8962
23.000000	74.947	128.2929
23.299999	75.057	126.7856
23.600000	75.164	125.3943
24.000000	75.313	123.7072
24.299999	75.434	122.5316
24.700001	75.613	121.0179
25.000000	75.758	119.8779
25.400000	75.960	118.3014
25.799999	76.159	116.6277
26.200001	76.345	114.8635
26.500000	76.468	113.5116
26.900000	76.611	111.7373
27.200001	76.704	110.4698
27.600000	76.818	108.8959
28.000000	76.932	107.4378
28.500000	77.082	105.6822
29.000000	77.234	103.8832
29.500000	77.374	102.0066
30.000000	77.493	100.1010
30.400000	77.575	98.5932
30.700001	77.630	97.4826
31.100000	77.696	96.0351
31.500000	77.755	94.6353
32.000000	77.825	92.9715
32.500000	77.898	91.4056
33.000000	77.981	89.8943
33.500000	78.073	88.3771
34.000000	78.166	86.8246
34.500000	78.254	85.2528
35.000000	78.336	83.6910
35.500000	78.410	82.1487
36.000000	78.477	80.6246
36.500000	78.531	79.1328
37.000000	78.575	77.7026
37.500000	78.613	76.3503
38.200001	78.663	74.5493
38.700001	78.697	73.2825
39.500000	78.739	71.2626
40.000000	78.756	70.0312
40.599998	78.768	68.6080
41.200001	78.776	67.2391
41.799999	78.780	65.9198
42.500000	78.778	64.4617
43.099998	78.775	63.2971
43.700001	78.774	62.1968
44.400002	78.774	60.9551
45.000000	78.769	59.9203
45.500000	78.760	59.0944
46.200001	78.743	58.0073
46.799999	78.725	57.1240
47.500000	78.697	56.1275
48.200001	78.659	55.1924
48.700001	78.626	54.5952
49.400002	78.580	53.8862
50.000000	78.547	53.3850
50.799999	78.521	52.8278
51.500000	78.514	52.4270
52.200001	78.525	52.1049
53.000000	78.565	51.7960
53.799999	78.636	51.4671
54.500000	78.715	51.0918
55.200001	78.798	50.5988
56.000000	78.883	49.9082
57.000000	78.961	48.9546
58.000000	79.012	48.0287
59.000000	79.055	47.1859
60.000000	79.106	46.2730
60.799999	79.134	45.4311
61.500000	79.144	44.6945
62.200001	79.150	44.0125
63.000000	79.162	43.2704
64.000000	79.188	42.2999
65.000000	79.214	41.2368
66.000000	79.226	40.1368
67.000000	79.221	39.1125
68.000000	79.204	38.2383
69.000000	79.178	37.5466
70.000000	79.144	37.0712
71.000000	79.111	36.8376
72.000000	79.092	36.7982
73.000000	79.095	36.8244
74.000000	79.116	36.8094
75.000000	79.147	36.7317
76.199997	79.199	36.6120
77.500000	79.290	36.4939
78.800003	79.429	36.3308
80.000000	79.588	36.0318
81.199997	79.757	35.5581
82.500000	79.930	34.8479
83.800003	80.083	34.0005
85.000000	80.213	33.1259
86.199997	80.335	32.1914
87.500000	80.467	31.1155
88.500000	80.568	30.2515
90.000000	80.713	28.9164
91.199997	80.819	27.8364
92.500000	80.926	26.6750
93.800003	81.031	25.4755
95.000000	81.125	24.2875
96.199997	81.216	22.9901
97.500000	81.306	21.4584
98.800003	81.383	19.8267
100.000000	81.438	18.2584
101.500000	81.478	16.2493
103.000000	81.481	14.2281
104.400002	81.447	12.3597
106.000000	81.364	10.3076
107.500000	81.252	8.5271
109.000000	81.115	6.9254
110.599998	80.952	5.4713
112.000000	80.806	4.4443
113.800003	80.623	3.4479
115.000000	80.508	2.9761
117.199997	80.326	2.4323
118.000000	80.270	2.2986
120.599998	80.123	1.9703
122.000000	80.065	1.8540
124.099998	80.015	1.7141
125.000000	80.009	1.6376
126.500000	80.014	1.4550
128.000000	80.036	1.1843
131.500000	80.124	0.1561
132.000000	80.138	-0.0374
134.000000	80.191	-0.9105
136.000000	80.235	-1.9075
138.000000	80.270	-3.0143
140.000000	80.289	-4.2367
143.000000	80.280	-6.2186
145.000000	80.253	-7.5879
147.500000	80.198	-9.3162
150.000000	80.120	-10.9864
152.500000	80.022	-12.5327
155.000000	79.906	-13.9651
157.500000	79.775	-15.3017
160.000000	79.633	-16.5285
162.500000	79.489	-17.6423
165.000000	79.345	-18.6625
167.500000	79.199	-19.6125
170.000000	79.051	-20.5151
172.500000	78.893	-21.3812
175.000000	78.725	-22.2225
177.500000	78.550	-23.0398
180.000000	78.380	-23.8038
182.500000	78.225	-24.5022
185.000000	78.078	-25.1431
187.500000	77.927	-25.7272
190.000000	77.768	-26.2615
192.500000	77.607	-26.7538
195.000000	77.446	-27.2060
197.500000	77.283	-27.6190
200.000000	77.118	-27.9960
203.000000	76.917	-28.4012
206.000000	76.709	-28.7380
209.000000	76.495	-28.9753
212.000000	76.277	-29.0839
214.000000	76.131	-29.0751
218.000000	75.849	-28.8550
220.000000	75.716	-28.6494
224.000000	75.476	-28.0964
227.000000	75.323	-27.6112
230.000000	75.192	-27.1174
233.000000	75.084	-26.6600
236.000000	74.992	-26.2689
240.000000	74.883	-25.8577
243.000000	74.805	-25.6162
247.000000	74.700	-25.3634
250.000000	74.622	-25.2186
254.000000	74.513	-25.0745
258.000000	74.399	-24.9587
262.000000	74.278	-24.8386
265.000000	74.183	-24.7386
269.000000	74.051	-24.5858
272.000000	73.948	-24.4447
276.000000	73.808	-24.2059
280.000000	73.666	-23.9008
285.000000	73.492	-23.4221
290.000000	73.327	-22.8622
295.000000	73.174	-22.2585
300.000000	73.032	-21.5790
304.000000	72.925	-20.9452
307.000000	72.849	-20.4332
311.000000	72.755	-19.7365
315.000000	72.668	-19.0375
320.000000	72.569	-18.1529
325.000000	72.482	-17.2401
330.000000	72.410	-16.2913
335.000000	72.356	-15.3200
340.000000	72.324	-14.3569
345.000000	72.315	-13.4513
350.000000	72.323	-12.6567
355.000000	72.337	-11.9979
360.000000	72.347	-11.4661
365.000000	72.350	-11.0265
370.000000	72.346	-10.6276
375.000000	72.340	-10.2345
382.000000	72.328	-9.6777
387.000000	72.320	-9.2767
395.000000	72.309	-8.6434
400.000000	72.305	-8.2667
406.000000	72.302	-7.8491
412.000000	72.299	-7.4766
418.000000	72.297	-7.1316
425.000000	72.300	-6.7189
431.000000	72.304	-6.3660
437.000000	72.307	-6.0426
444.000000	72.309	-5.7045
450.000000	72.309	-5.4371
455.000000	72.307	-5.2255
462.000000	72.305	-4.9446
468.000000	72.304	-4.7236
475.000000	72.303	-4.5032
482.000000	72.299	-4.3322
487.000000	72.293	-4.2339
494.000000	72.279	-4.1076
500.000000	72.263	-3.9964
508.000000	72.235	-3.8371
515.000000	72.205	-3.6794
522.000000	72.170	-3.4939
530.000000	72.125	-3.2433
538.000000	72.076	-2.9574
545.000000	72.035	-2.6854
552.000000	71.998	-2.3876
560.000000	71.957	-2.0042
570.000000	71.910	-1.4644
580.000000	71.867	-0.8771
590.000000	71.831	-0.2583
600.000000	71.806	0.4042
608.000000	71.797	0.9780
615.000000	71.801	1.4971
622.000000	71.817	2.0020
630.000000	71.849	2.5193
640.000000	71.907	3.0079
650.000000	71.970	3.2666
660.000000	72.019	3.2991
670.000000	72.043	3.1814
680.000000	72.039	3.0321
690.000000	72.014	2.9257
700.000000	71.977	2.8801
710.000000	71.930	2.8938
720.000000	71.874	2.9645
730.000000	71.811	3.0972
740.000000	71.744	3.2988
750.000000	71.676	3.5674
762.000000	71.596	3.9659
775.000000	71.514	4.4663
788.000000	71.437	5.0034
800.000000	71.370	5.5217
812.000000	71.305	6.0640
825.000000	71.235	6.6738
838.000000	71.166	7.3230
850.000000	71.104	7.9817
862.000000	71.048	8.6835
875.000000	70.993	9.4507
885.000000	70.953	10.0351
900.000000	70.892	10.9253
912.000000	70.842	11.6721
925.000000	70.787	12.5178
938.000000	70.731	13.4016
950.000000	70.678	14.2661
962.000000	70.624	15.2020
975.000000	70.562	16.3258
988.000000	70.501	17.6063
1000.000000	70.452	18.9919
1015.000000	70.434	21.0414
1030.000000	70.504	23.2811
1044.000000	70.655	25.2648
1060.000000	70.907	27.1142
1075.000000	71.182	28.2630
1090.000000	71.452	28.8049
1106.000000	71.697	28.8106
1120.000000	71.856	28.4854
1138.000000	71.975	27.9031
1150.000000	72.007	27.5615
1172.000000	71.999	27.2305
1180.000000	71.982	27.2225
1206.000000	71.904	27.6172
1220.000000	71.862	28.0653
1241.000000	71.814	28.9549
1250.000000	71.801	29.3928
1265.000000	71.788	30.1777
1280.000000	71.786	31.0151
1315.000000	71.824	33.0686
1320.000000	71.834	33.3657
1340.000000	71.882	34.5486
1360.000000	71.942	35.7135
1380.000000	72.010	36.8657
1400.000000	72.086	38.0278
1430.000000	72.220	39.8327
1450.000000	72.334	41.0554
1475.000000	72.507	42.4897
1500.000000	72.700	43.7192
1525.000000	72.892	44.7598
1550.000000	73.076	45.6915
1575.000000	73.256	46.5730
1600.000000	73.435	47.4249
1625.000000	73.615	48.2559
1650.000000	73.800	49.0652
1675.000000	73.990	49.8387
1700.000000	74.185	50.5646
1725.000000	74.385	51.2360
1750.000000	74.587	51.8514
1775.000000	74.790	52.4120
1800.000000	74.994	52.9153
1825.000000	75.198	53.3604
1850.000000	75.403	53.7531
1875.000000	75.608	54.0990
1900.000000	75.814	54.4006
1925.000000	76.019	54.6605
1950.000000	76.225	54.8812
1975.000000	76.430	55.0622
2000.000000	76.635	55.2015
2030.000000	76.879	55.3111
2060.000000	77.124	55.3563
2090.000000	77.367	55.3345
2120.000000	77.605	55.2490
2140.000000	77.762	55.1631
2180.000000	78.070	54.9334
2200.000000	78.223	54.7906
2240.000000	78.524	54.4550
2270.000000	78.747	54.1638
2300.000000	78.967	53.8400
2330.000000	79.186	53.4843
2360.000000	79.405	53.0971
2400.000000	79.697	52.5272
2430.000000	79.917	52.0558
2470.000000	80.212	51.3624
2500.000000	80.436	50.7873
2540.000000	80.737	49.9321
2580.000000	81.042	48.9544
2620.000000	81.348	47.8315
2650.000000	81.577	46.8826
2690.000000	81.879	45.4615
2720.000000	82.101	44.2706
2760.000000	82.387	42.5100
2800.000000	82.658	40.5536
2850.000000	82.966	37.8438
2900.000000	83.236	34.8598
2950.000000	83.460	31.6281
3000.000000	83.631	28.1735
3040.000000	83.724	25.2709
3070.000000	83.764	23.0365
3110.000000	83.776	20.0256
3150.000000	83.741	17.0330
3200.000000	83.632	13.3943
3250.000000	83.459	9.9402
3300.000000	83.227	6.7324
3350.000000	82.942	3.8228
3400.000000	82.614	1.2611
3450.000000	82.249	-0.9038
3500.000000	81.861	-2.6437
3550.000000	81.464	-3.9719
3600.000000	81.069	-4.9299
3650.000000	80.684	-5.5621
3700.000000	80.312	-5.9088
3750.000000	79.958	-6.0071
3820.000000	79.496	-5.7816
3870.000000	79.190	-5.3862
3950.000000	78.749	-4.3912
4000.000000	78.508	-3.5785
4060.000000	78.255	-2.4601
4120.000000	78.043	-1.2285
4180.000000	77.871	0.0889
4250.000000	77.720	1.7144
4310.000000	77.635	3.1654
4370.000000	77.593	4.6472
4440.000000	77.605	6.3792
4500.000000	77.675	7.8115
4550.000000	77.778	8.9111
4620.000000	77.989	10.2028
4680.000000	78.225	10.9800
4750.000000	78.549	11.3809
4820.000000	78.903	11.1373
4870.000000	79.159	10.5358
4940.000000	79.503	9.0916
5000.000000	79.769	7.3152
5080.000000	80.060	4.2216
5150.000000	80.234	0.8970
5220.000000	80.310	-2.8944
5300.000000	80.256	-7.5776
5380.000000	80.039	-12.3059
5450.000000	79.717	-16.1876
5520.000000	79.284	-19.5900
5600.000000	78.679	-22.6652
5700.000000	77.826	-25.1177
5800.000000	76.949	-26.1220
5900.000000	76.116	-25.9835
6000.000000	75.365	-25.0359
6080.000000	74.831	-23.8752
6150.000000	74.414	-22.6465
6220.000000	74.043	-21.2709
6300.000000	73.677	-19.5862
6400.000000	73.306	-17.4352
6500.000000	73.019	-15.3683
6600.000000	72.800	-13.4775
6700.000000	72.631	-11.8011
6800.000000	72.500	-10.3428
6900.000000	72.396	-9.0894
7000.000000	72.314	-8.0242
7100.000000	72.254	-7.1439
7200.000000	72.217	-6.4727
7300.000000	72.200	-6.0564
7400.000000	72.198	-5.9525
7500.000000	72.202	-6.2267
7620.000000	72.190	-7.1245
7750.000000	72.111	-8.7538
7880.000000	71.921	-10.7944
8000.000000	71.633	-12.6691
8120.000000	71.252	-14.1915
8250.000000	70.780	-15.2069
8380.000000	70.310	-15.5667
8500.000000	69.933	-15.5514
8620.000000	69.638	-15.5778
8750.000000	69.402	-16.1126
8850.000000	69.246	-17.1200
9000.000000	68.967	-19.7261
9120.000000	68.634	-22.5519
9250.000000	68.124	-25.9396
9380.000000	67.454	-29.3105
9500.000000	66.699	-32.2047
9620.000000	65.815	-34.7347
9750.000000	64.713	-36.9064
9880.000000	63.465	-38.3315
10000.000000	62.174	-38.7555
10150.000000	60.346	-37.2480
10300.000000	58.249	-31.1608
10440.000000	56.178	-17.4116
10600.000000	54.807	11.9863
10750.000000	56.223	47.5465
10900.000000	59.074	75.4149
11060.000000	61.801	86.8438
11200.000000	63.538	84.6821
11380.000000	64.971	75.0790
11500.000000	65.577	68.2699
11720.000000	66.353	58.2465
11800.000000	66.603	55.3815
12060.000000	67.506	47.3929
12200.000000	68.081	43.0044
12410.000000	69.019	34.9164
12500.000000	69.415	30.5674
12650.000000	69.997	21.7863
12800.000000	70.395	10.9572
13150.000000	70.116	-19.6724
13200.000000	69.912	-24.1164
13400.000000	68.681	-40.2920
13600.000000	66.862	-52.2689
13800.000000	64.607	-58.8975
14000.000000	62.132	-60.4109
14300.000000	58.687	-56.7835
14500.000000	57.043	-54.1763
14750.000000	55.726	-54.0505
15000.000000	54.562	-56.8192
15250.000000	53.000	-58.1490
15500.000000	51.049	-53.3837
15750.000000	49.500	-42.1053
16000.000000	49.614	-29.9485
16250.000000	51.065	-24.1833
16500.000000	52.593	-27.5969
16750.000000	53.627	-38.3726
17000.000000	54.053	-53.0045
17250.000000	53.973	-68.2909
17500.000000	53.627	-82.6748
17750.000000	53.263	-96.4381
18000.000000	53.022	-110.6969
18250.000000	52.937	-126.5544
18500.000000	52.996	-144.9344
18750.000000	53.158	-166.6671
19000.000000	53.351	167.6234
19250.000000	53.487	138.0842
19500.000000	53.499	106.6880
19750.000000	53.392	78.3996
