* Measurement data measured by REW V5.20.13
* Source: EXCL: Headset (USB-C to 3.5mm Headphone Jack Adapter), MICROPHONE (Master Volume), 0, volume: 0.260. Timing signal peak level -37.4 dBFS, measurement signal peak level -36.0 dBFS
* Format: 256k Log Swept Sine, 1 sweep at -12.0 dBFS using an acoustic timing reference
* Dated: Mar 2, 2024 12:44:12 PM
* REW Settings:
*  C-weighting compensation: Off
*  Target level: 75.0 dB
* Note: Delay -0.0401 ms (-14 mm, -0.54 in) using estimated IR delay relative to Acoustic reference played from  L with no timing offset Clock adjustment: -53.8 ppm
* Measurement: Orthrus 5m Nylon Front L
* Smoothing: 1/12 octave
* Frequency Step: 1/48 octave
* Start Frequency: 20.000 Hz
*
* Freq(Hz)	SPL(dB)	Phase(degrees)
20.000000	69.443	145.7772
20.299999	69.603	144.0969
20.600000	69.751	142.4428
20.900000	69.891	140.8239
21.200001	70.025	139.2427
21.400000	70.112	138.2083
21.799999	70.284	136.1786
22.000000	70.370	135.1797
22.400000	70.541	133.2097
22.700001	70.669	131.7571
23.000000	70.796	130.3315
23.299999	70.923	128.9403
23.600000	71.051	127.5906
24.000000	71.224	125.8631
24.299999	71.356	124.6240
24.700001	71.534	123.0512
25.000000	71.671	121.9381
25.400000	71.858	120.5530
25.799999	72.059	119.2750
26.200001	72.278	118.0535
26.500000	72.456	117.1185
26.900000	72.702	115.7605
27.200001	72.885	114.6172
27.600000	73.109	112.9185
28.000000	73.298	111.0730
28.500000	73.475	108.7054
29.000000	73.593	106.4294
29.500000	73.669	104.3239
30.000000	73.718	102.4094
30.400000	73.747	101.0132
30.700001	73.768	100.0341
31.100000	73.801	98.7867
31.500000	73.842	97.5492
32.000000	73.899	95.9398
32.500000	73.950	94.2544
33.000000	73.988	92.5792
33.500000	74.023	90.9888
34.000000	74.067	89.4541
34.500000	74.120	87.8815
35.000000	74.162	86.2364
35.500000	74.177	84.6051
36.000000	74.164	83.1346
36.500000	74.136	81.9149
37.000000	74.111	80.9267
37.500000	74.094	80.0910
38.200001	74.080	79.0580
38.700001	74.070	78.3931
39.500000	74.049	77.4776
40.000000	74.038	77.0034
40.599998	74.036	76.5091
41.200001	74.051	76.0383
41.799999	74.083	75.5204
42.500000	74.134	74.8063
43.099998	74.178	74.1261
43.700001	74.221	73.4565
44.400002	74.279	72.7798
45.000000	74.355	72.2851
45.500000	74.442	71.8486
46.200001	74.586	71.0260
46.799999	74.696	70.0707
47.500000	74.773	68.8677
48.200001	74.803	67.9199
48.700001	74.823	67.4893
49.400002	74.884	67.0939
50.000000	74.967	66.7488
50.799999	75.091	66.1137
51.500000	75.189	65.4376
52.200001	75.269	64.7340
53.000000	75.336	63.9482
53.799999	75.372	63.2589
54.500000	75.386	62.8083
55.200001	75.395	62.4857
56.000000	75.405	62.1880
57.000000	75.415	61.8257
58.000000	75.411	61.4759
59.000000	75.415	61.4646
60.000000	75.539	61.7467
60.799999	75.733	61.5758
61.500000	75.912	60.9724
62.200001	76.067	60.1637
63.000000	76.225	59.2545
64.000000	76.418	58.2559
65.000000	76.614	57.3579
66.000000	76.807	56.4671
67.000000	76.985	55.5255
68.000000	77.144	54.5128
69.000000	77.282	53.4185
70.000000	77.399	52.2648
71.000000	77.498	51.0775
72.000000	77.580	49.8791
73.000000	77.644	48.7124
74.000000	77.696	47.6088
75.000000	77.739	46.5824
76.199997	77.785	45.4859
77.500000	77.849	44.4562
78.800003	77.943	43.5265
80.000000	78.060	42.6973
81.199997	78.202	41.8293
82.500000	78.371	40.7984
83.800003	78.541	39.6642
85.000000	78.697	38.5089
86.199997	78.847	37.2014
87.500000	78.999	35.5842
88.500000	79.106	34.2021
90.000000	79.244	31.9367
91.199997	79.332	30.0023
92.500000	79.401	27.8350
93.800003	79.439	25.6331
95.000000	79.445	23.5911
96.199997	79.420	21.5511
97.500000	79.354	19.3647
98.800003	79.247	17.2507
100.000000	79.114	15.4254
101.500000	78.910	13.4095
103.000000	78.673	11.7850
104.400002	78.435	10.6858
106.000000	78.165	9.9469
107.500000	77.944	9.6772
109.000000	77.775	9.6758
110.599998	77.658	9.8571
112.000000	77.606	10.0967
113.800003	77.587	10.3677
115.000000	77.588	10.4417
117.199997	77.587	10.2898
118.000000	77.590	10.1604
120.599998	77.654	9.4937
122.000000	77.722	8.9378
124.099998	77.819	7.9306
125.000000	77.853	7.4699
126.500000	77.895	6.6602
128.000000	77.923	5.7805
131.500000	77.964	3.5113
132.000000	77.968	3.1746
134.000000	77.972	1.8107
136.000000	77.954	0.3977
138.000000	77.913	-1.0580
140.000000	77.863	-2.4650
143.000000	77.793	-4.4324
145.000000	77.738	-5.7091
147.500000	77.639	-7.2520
150.000000	77.511	-8.6901
152.500000	77.359	-10.0208
155.000000	77.192	-11.2178
157.500000	77.033	-12.2535
160.000000	76.889	-13.1759
162.500000	76.749	-14.0508
165.000000	76.612	-14.9418
167.500000	76.478	-15.8669
170.000000	76.343	-16.7669
172.500000	76.208	-17.5602
175.000000	76.077	-18.1714
177.500000	75.945	-18.6639
180.000000	75.796	-19.2816
182.500000	75.611	-20.1416
185.000000	75.404	-21.0494
187.500000	75.204	-21.8084
190.000000	75.015	-22.3818
192.500000	74.832	-22.8298
195.000000	74.653	-23.2095
197.500000	74.478	-23.5337
200.000000	74.305	-23.8038
203.000000	74.098	-24.0749
206.000000	73.887	-24.2901
209.000000	73.675	-24.4316
212.000000	73.466	-24.4971
214.000000	73.328	-24.5043
218.000000	73.056	-24.4534
220.000000	72.920	-24.4009
224.000000	72.649	-24.2396
227.000000	72.444	-24.0576
230.000000	72.242	-23.8058
233.000000	72.043	-23.4774
236.000000	71.848	-23.0674
240.000000	71.596	-22.3605
243.000000	71.417	-21.7006
247.000000	71.194	-20.7031
250.000000	71.039	-19.9111
254.000000	70.849	-18.8307
258.000000	70.681	-17.7308
262.000000	70.529	-16.5956
265.000000	70.420	-15.7089
269.000000	70.280	-14.4704
272.000000	70.182	-13.4957
276.000000	70.066	-12.1381
280.000000	69.976	-10.7322
285.000000	69.903	-8.9763
290.000000	69.876	-7.3256
295.000000	69.892	-5.8658
300.000000	69.934	-4.5011
304.000000	69.971	-3.3508
307.000000	70.000	-2.5022
311.000000	70.043	-1.4927
315.000000	70.088	-0.6390
320.000000	70.148	0.2709
325.000000	70.208	1.0757
330.000000	70.269	1.8120
335.000000	70.334	2.4835
340.000000	70.400	3.0785
345.000000	70.464	3.5909
350.000000	70.520	4.0342
355.000000	70.568	4.4290
360.000000	70.612	4.7905
365.000000	70.658	5.1270
370.000000	70.702	5.4492
375.000000	70.742	5.7703
382.000000	70.796	6.2317
387.000000	70.836	6.5636
395.000000	70.906	7.0648
400.000000	70.954	7.3468
406.000000	71.017	7.6643
412.000000	71.085	7.9718
418.000000	71.152	8.2379
425.000000	71.210	8.4216
431.000000	71.249	8.4910
437.000000	71.289	8.5310
444.000000	71.338	8.5633
450.000000	71.378	8.5716
455.000000	71.408	8.5506
462.000000	71.444	8.4678
468.000000	71.469	8.3575
475.000000	71.488	8.2122
482.000000	71.491	8.0820
487.000000	71.484	8.0115
494.000000	71.465	7.9494
500.000000	71.445	7.9311
508.000000	71.418	7.9602
515.000000	71.392	8.0483
522.000000	71.367	8.2124
530.000000	71.341	8.4925
538.000000	71.319	8.8082
545.000000	71.305	9.0417
552.000000	71.296	9.2399
560.000000	71.290	9.4731
570.000000	71.288	9.7820
580.000000	71.293	10.0701
590.000000	71.300	10.3073
600.000000	71.305	10.5095
608.000000	71.304	10.6792
615.000000	71.300	10.8367
622.000000	71.295	10.9954
630.000000	71.286	11.1762
640.000000	71.272	11.4075
650.000000	71.256	11.6509
660.000000	71.246	11.9242
670.000000	71.245	12.2393
680.000000	71.250	12.5599
690.000000	71.258	12.8613
700.000000	71.271	13.1440
710.000000	71.292	13.3904
720.000000	71.320	13.5526
730.000000	71.347	13.5870
740.000000	71.362	13.4866
750.000000	71.354	13.2999
762.000000	71.310	13.0846
775.000000	71.231	12.9903
788.000000	71.131	13.0657
800.000000	71.034	13.2586
812.000000	70.939	13.5507
825.000000	70.837	13.9573
838.000000	70.737	14.4545
850.000000	70.647	15.0048
862.000000	70.559	15.6329
875.000000	70.465	16.3874
885.000000	70.394	17.0244
900.000000	70.290	18.0973
912.000000	70.205	19.0685
925.000000	70.115	20.2397
938.000000	70.029	21.5719
950.000000	69.961	22.9924
962.000000	69.911	24.6262
975.000000	69.900	26.6446
988.000000	69.968	28.8729
1000.000000	70.126	30.9330
1015.000000	70.445	33.0175
1030.000000	70.815	34.0816
1044.000000	71.124	34.1232
1060.000000	71.372	33.4214
1075.000000	71.490	32.5170
1090.000000	71.515	31.7810
1106.000000	71.479	31.4117
1120.000000	71.428	31.4485
1138.000000	71.368	31.8659
1150.000000	71.338	32.2961
1172.000000	71.306	33.2259
1180.000000	71.298	33.5848
1206.000000	71.280	34.8628
1220.000000	71.278	35.6486
1241.000000	71.296	36.9234
1250.000000	71.311	37.4825
1265.000000	71.346	38.4042
1280.000000	71.388	39.3063
1315.000000	71.517	41.3741
1320.000000	71.538	41.6639
1340.000000	71.633	42.7979
1360.000000	71.735	43.8933
1380.000000	71.842	44.9585
1400.000000	71.956	46.0033
1430.000000	72.144	47.5722
1450.000000	72.286	48.6114
1475.000000	72.482	49.8209
1500.000000	72.686	50.8669
1525.000000	72.885	51.7766
1550.000000	73.076	52.6125
1575.000000	73.267	53.4188
1600.000000	73.460	54.2140
1625.000000	73.659	54.9839
1650.000000	73.863	55.7110
1675.000000	74.073	56.3953
1700.000000	74.290	57.0266
1725.000000	74.514	57.5900
1750.000000	74.741	58.0800
1775.000000	74.971	58.4907
1800.000000	75.202	58.8121
1825.000000	75.432	59.0390
1850.000000	75.658	59.1782
1875.000000	75.879	59.2454
1900.000000	76.093	59.2576
1925.000000	76.303	59.2263
1950.000000	76.506	59.1562
1975.000000	76.706	59.0516
2000.000000	76.903	58.9172
2030.000000	77.135	58.7161
2060.000000	77.362	58.4679
2090.000000	77.583	58.1711
2120.000000	77.796	57.8279
2140.000000	77.934	57.5780
2180.000000	78.201	57.0410
2200.000000	78.331	56.7595
2240.000000	78.584	56.1856
2270.000000	78.769	55.7499
2300.000000	78.952	55.3070
2330.000000	79.133	54.8553
2360.000000	79.314	54.3931
2400.000000	79.557	53.7501
2430.000000	79.740	53.2424
2470.000000	79.987	52.5270
2500.000000	80.173	51.9553
2540.000000	80.425	51.1349
2580.000000	80.681	50.2357
2620.000000	80.940	49.2374
2650.000000	81.136	48.4065
2690.000000	81.398	47.1722
2720.000000	81.593	46.1453
2760.000000	81.849	44.6346
2800.000000	82.098	42.9536
2850.000000	82.395	40.5896
2900.000000	82.669	37.8868
2950.000000	82.901	34.8199
3000.000000	83.071	31.4471
3040.000000	83.155	28.6041
3070.000000	83.187	26.4268
3110.000000	83.187	23.5082
3150.000000	83.140	20.6194
3200.000000	83.016	17.1223
3250.000000	82.828	13.8250
3300.000000	82.582	10.7931
3350.000000	82.284	8.0856
3400.000000	81.945	5.7518
3450.000000	81.574	3.8239
3500.000000	81.183	2.3122
3550.000000	80.786	1.1998
3600.000000	80.392	0.4546
3650.000000	80.008	0.0427
3700.000000	79.638	-0.0698
3750.000000	79.287	0.0863
3820.000000	78.835	0.6976
3870.000000	78.543	1.3781
3950.000000	78.133	2.8347
4000.000000	77.915	3.9407
4060.000000	77.697	5.4228
4120.000000	77.528	7.0301
4180.000000	77.408	8.7287
4250.000000	77.330	10.7994
4310.000000	77.320	12.6240
4370.000000	77.367	14.4648
4440.000000	77.503	16.5948
4500.000000	77.697	18.3549
4550.000000	77.921	19.7188
4620.000000	78.334	21.3507
4680.000000	78.784	22.3510
4750.000000	79.416	22.8387
4820.000000	80.143	22.3298
4870.000000	80.701	21.1821
4940.000000	81.489	18.2184
5000.000000	82.116	14.2231
5080.000000	82.776	6.7037
5150.000000	83.092	-1.6411
5220.000000	83.101	-10.9353
5300.000000	82.704	-21.5012
5380.000000	81.907	-30.6764
5450.000000	80.953	-36.8575
5520.000000	79.847	-41.1511
5600.000000	78.503	-43.9673
5700.000000	76.846	-45.0375
5800.000000	75.318	-44.2267
5900.000000	73.962	-42.2142
6000.000000	72.775	-39.4346
6080.000000	71.931	-36.8276
6150.000000	71.259	-34.3223
6220.000000	70.640	-31.6270
6300.000000	69.990	-28.3208
6400.000000	69.266	-23.8440
6500.000000	68.650	-18.9869
6600.000000	68.157	-13.8030
6700.000000	67.810	-8.4061
6800.000000	67.627	-2.9861
6900.000000	67.619	2.1966
7000.000000	67.776	6.8476
7100.000000	68.066	10.6818
7200.000000	68.437	13.5016
7300.000000	68.839	15.2399
7400.000000	69.227	15.9342
7500.000000	69.572	15.6627
7620.000000	69.889	14.1791
7750.000000	70.052	11.3908
7880.000000	69.961	7.9739
8000.000000	69.626	5.1834
8120.000000	69.090	3.7085
8250.000000	68.430	4.2427
8380.000000	67.934	6.7871
8500.000000	67.840	9.9099
8620.000000	68.167	12.2555
8750.000000	68.823	12.0319
8850.000000	69.312	9.0526
9000.000000	69.638	0.4222
9120.000000	69.383	-8.0708
9250.000000	68.610	-16.3998
9380.000000	67.474	-22.6850
9500.000000	66.243	-26.7922
9620.000000	64.915	-29.7390
9750.000000	63.391	-32.0606
9880.000000	61.767	-33.8722
10000.000000	60.150	-35.6696
10150.000000	57.932	-40.0424
10300.000000	55.537	-51.7057
10440.000000	53.668	-76.0708
10600.000000	53.848	-122.9451
10750.000000	56.211	-172.9924
10900.000000	58.624	146.7579
11060.000000	60.459	118.5309
11200.000000	61.556	103.6409
11380.000000	62.702	93.2245
11500.000000	63.481	89.2432
11720.000000	65.034	83.4421
11800.000000	65.616	81.0639
12060.000000	67.418	70.5588
12200.000000	68.253	62.6804
12410.000000	69.188	47.5465
12500.000000	69.428	39.8820
12650.000000	69.561	25.8980
12800.000000	69.315	11.1760
13150.000000	67.280	-20.3215
13200.000000	66.847	-24.1325
13400.000000	64.857	-37.4779
13600.000000	62.532	-47.8231
13800.000000	59.902	-54.3896
14000.000000	56.941	-55.0381
14300.000000	51.895	-40.2050
14500.000000	48.482	-20.7153
14750.000000	45.705	9.5131
15000.000000	46.477	39.3096
15250.000000	48.979	56.8893
15500.000000	51.152	59.5638
15750.000000	52.781	54.2621
16000.000000	54.118	46.1142
16250.000000	55.320	36.0637
16500.000000	56.362	23.3454
16750.000000	57.092	7.2892
17000.000000	57.305	-11.5221
17250.000000	56.864	-30.4236
17500.000000	55.863	-45.9891
17750.000000	54.749	-57.0499
18000.000000	54.229	-65.9983
18250.000000	54.637	-77.0333
18500.000000	55.589	-93.5388
18750.000000	56.562	-116.9041
19000.000000	57.275	-146.7903
19250.000000	57.629	178.4364
19500.000000	57.630	142.0657
19750.000000	57.392	109.9873
