* Measurement data measured by REW V5.31.1
* Source: Frequency response averaged data
* Format: Averaged data produced from the rms magnitudes of R s2 5, R s2 5, R s2 5, R s2 5
* Dated: Aug 15, 2024 8:16:51 PM
* REW Settings:
*  C-weighting compensation: Off
*  Target level: 75.0 dB
* Note: Averaged data produced from the rms magnitudes of R s2 5, R s2 5, R s2 5, R s2 5
* Measurement: RMS Average R
* Smoothing: 1/12 octave
* Frequency Step: 1/48 octave
* Start Frequency: 20.000 Hz
*
* Freq(Hz)	SPL(dB)
20.000000	75.055
20.299999	75.227
20.600000	75.396
20.900000	75.562
21.200001	75.727
21.400000	75.837
21.799999	76.055
22.000000	76.164
22.400000	76.376
22.700001	76.531
23.000000	76.681
23.299999	76.827
23.600000	76.968
24.000000	77.149
24.299999	77.280
24.700001	77.450
25.000000	77.573
25.400000	77.733
25.799999	77.889
26.200001	78.042
26.500000	78.156
26.900000	78.307
27.200001	78.419
27.600000	78.566
28.000000	78.708
28.500000	78.879
29.000000	79.040
29.500000	79.195
30.000000	79.345
30.400000	79.462
30.700001	79.547
31.100000	79.658
31.500000	79.765
32.000000	79.894
32.500000	80.020
33.000000	80.143
33.500000	80.266
34.000000	80.385
34.500000	80.501
35.000000	80.612
35.500000	80.717
36.000000	80.818
36.500000	80.915
37.000000	81.009
37.500000	81.099
38.200001	81.222
38.700001	81.307
39.500000	81.440
40.000000	81.520
40.599998	81.615
41.200001	81.707
41.799999	81.796
42.500000	81.894
43.099998	81.975
43.700001	82.051
44.400002	82.136
45.000000	82.206
45.500000	82.262
46.200001	82.338
46.799999	82.401
47.500000	82.472
48.200001	82.541
48.700001	82.589
49.400002	82.654
50.000000	82.708
50.799999	82.778
51.500000	82.836
52.200001	82.890
53.000000	82.948
53.799999	82.999
54.500000	83.039
55.200001	83.073
56.000000	83.106
57.000000	83.143
58.000000	83.180
59.000000	83.222
60.000000	83.272
60.799999	83.316
61.500000	83.357
62.200001	83.399
63.000000	83.447
64.000000	83.505
65.000000	83.558
66.000000	83.606
67.000000	83.650
68.000000	83.687
69.000000	83.719
70.000000	83.745
71.000000	83.766
72.000000	83.779
73.000000	83.786
74.000000	83.786
75.000000	83.779
76.199997	83.760
77.500000	83.727
78.800003	83.683
80.000000	83.634
81.199997	83.579
82.500000	83.518
83.800003	83.461
85.000000	83.419
86.199997	83.392
87.500000	83.384
88.500000	83.395
90.000000	83.435
91.199997	83.485
92.500000	83.551
93.800003	83.622
95.000000	83.689
96.199997	83.752
97.500000	83.815
98.800003	83.870
100.000000	83.913
101.500000	83.958
103.000000	83.992
104.400002	84.016
106.000000	84.035
107.500000	84.047
109.000000	84.055
110.599998	84.060
112.000000	84.061
113.800003	84.062
115.000000	84.061
117.199997	84.060
118.000000	84.060
120.599998	84.062
122.000000	84.064
124.099998	84.068
125.000000	84.069
126.500000	84.069
128.000000	84.069
131.500000	84.066
132.000000	84.065
134.000000	84.064
136.000000	84.064
138.000000	84.065
140.000000	84.066
143.000000	84.065
145.000000	84.061
147.500000	84.050
150.000000	84.033
152.500000	84.010
155.000000	83.984
157.500000	83.955
160.000000	83.927
162.500000	83.900
165.000000	83.877
167.500000	83.858
170.000000	83.844
172.500000	83.834
175.000000	83.829
177.500000	83.827
180.000000	83.828
182.500000	83.829
185.000000	83.831
187.500000	83.831
190.000000	83.828
192.500000	83.821
195.000000	83.810
197.500000	83.794
200.000000	83.773
203.000000	83.741
206.000000	83.700
209.000000	83.651
212.000000	83.593
214.000000	83.550
218.000000	83.456
220.000000	83.404
224.000000	83.296
227.000000	83.213
230.000000	83.128
233.000000	83.045
236.000000	82.964
240.000000	82.861
243.000000	82.789
247.000000	82.697
250.000000	82.631
254.000000	82.546
258.000000	82.461
262.000000	82.378
265.000000	82.317
269.000000	82.237
272.000000	82.179
276.000000	82.105
280.000000	82.034
285.000000	81.950
290.000000	81.873
295.000000	81.802
300.000000	81.738
304.000000	81.690
307.000000	81.657
311.000000	81.616
315.000000	81.578
320.000000	81.535
325.000000	81.495
330.000000	81.457
335.000000	81.422
340.000000	81.388
345.000000	81.356
350.000000	81.325
355.000000	81.295
360.000000	81.265
365.000000	81.236
370.000000	81.208
375.000000	81.180
382.000000	81.143
387.000000	81.117
395.000000	81.078
400.000000	81.056
406.000000	81.031
412.000000	81.007
418.000000	80.986
425.000000	80.963
431.000000	80.945
437.000000	80.928
444.000000	80.911
450.000000	80.897
455.000000	80.886
462.000000	80.873
468.000000	80.863
475.000000	80.854
482.000000	80.847
487.000000	80.844
494.000000	80.844
500.000000	80.846
508.000000	80.852
515.000000	80.861
522.000000	80.871
530.000000	80.884
538.000000	80.894
545.000000	80.901
552.000000	80.906
560.000000	80.906
570.000000	80.901
580.000000	80.890
590.000000	80.875
600.000000	80.859
608.000000	80.845
615.000000	80.833
622.000000	80.819
630.000000	80.802
640.000000	80.772
650.000000	80.733
660.000000	80.682
670.000000	80.621
680.000000	80.558
690.000000	80.501
700.000000	80.462
710.000000	80.448
720.000000	80.463
730.000000	80.505
740.000000	80.568
750.000000	80.647
762.000000	80.752
775.000000	80.869
788.000000	80.981
800.000000	81.076
812.000000	81.162
825.000000	81.246
838.000000	81.322
850.000000	81.388
862.000000	81.449
875.000000	81.510
885.000000	81.554
900.000000	81.615
912.000000	81.659
925.000000	81.702
938.000000	81.741
950.000000	81.774
962.000000	81.806
975.000000	81.839
988.000000	81.872
1000.000000	81.905
1015.000000	81.950
1030.000000	82.002
1044.000000	82.058
1060.000000	82.135
1075.000000	82.219
1090.000000	82.315
1106.000000	82.429
1120.000000	82.536
1138.000000	82.679
1150.000000	82.775
1172.000000	82.950
1180.000000	83.011
1206.000000	83.202
1220.000000	83.297
1241.000000	83.427
1250.000000	83.478
1265.000000	83.556
1280.000000	83.627
1315.000000	83.757
1320.000000	83.771
1340.000000	83.819
1360.000000	83.851
1380.000000	83.870
1400.000000	83.878
1430.000000	83.877
1450.000000	83.872
1475.000000	83.867
1500.000000	83.869
1525.000000	83.882
1550.000000	83.905
1575.000000	83.935
1600.000000	83.968
1625.000000	83.996
1650.000000	84.016
1675.000000	84.027
1700.000000	84.036
1725.000000	84.051
1750.000000	84.083
1775.000000	84.139
1800.000000	84.223
1825.000000	84.335
1850.000000	84.474
1875.000000	84.634
1900.000000	84.812
1925.000000	85.002
1950.000000	85.198
1975.000000	85.395
2000.000000	85.586
2030.000000	85.805
2060.000000	86.008
2090.000000	86.197
2120.000000	86.374
2140.000000	86.489
2180.000000	86.714
2200.000000	86.827
2240.000000	87.056
2270.000000	87.231
2300.000000	87.407
2330.000000	87.586
2360.000000	87.766
2400.000000	88.010
2430.000000	88.197
2470.000000	88.453
2500.000000	88.647
2540.000000	88.910
2580.000000	89.176
2620.000000	89.447
2650.000000	89.655
2690.000000	89.940
2720.000000	90.159
2760.000000	90.456
2800.000000	90.754
2850.000000	91.119
2900.000000	91.464
2950.000000	91.782
3000.000000	92.069
3040.000000	92.273
3070.000000	92.411
3110.000000	92.574
3150.000000	92.710
3200.000000	92.845
3250.000000	92.939
3300.000000	92.994
3350.000000	93.011
3400.000000	92.992
3450.000000	92.939
3500.000000	92.857
3550.000000	92.751
3600.000000	92.625
3650.000000	92.482
3700.000000	92.322
3750.000000	92.144
3820.000000	91.857
3870.000000	91.621
3950.000000	91.190
4000.000000	90.890
4060.000000	90.507
4120.000000	90.113
4180.000000	89.718
4250.000000	89.275
4310.000000	88.920
4370.000000	88.592
4440.000000	88.248
4500.000000	87.988
4550.000000	87.795
4620.000000	87.566
4680.000000	87.407
4750.000000	87.269
4820.000000	87.182
4870.000000	87.153
4940.000000	87.157
5000.000000	87.202
5080.000000	87.317
5150.000000	87.464
5220.000000	87.642
5300.000000	87.868
5380.000000	88.093
5450.000000	88.268
5520.000000	88.406
5600.000000	88.498
5700.000000	88.493
5800.000000	88.338
5900.000000	88.034
6000.000000	87.598
6080.000000	87.171
6150.000000	86.756
6220.000000	86.313
6300.000000	85.787
6400.000000	85.118
6500.000000	84.457
6600.000000	83.824
6700.000000	83.235
6800.000000	82.707
6900.000000	82.249
7000.000000	81.859
7100.000000	81.527
7200.000000	81.240
7300.000000	80.985
7400.000000	80.762
7500.000000	80.584
7620.000000	80.455
7750.000000	80.456
7880.000000	80.619
8000.000000	80.897
8120.000000	81.252
8250.000000	81.661
8380.000000	82.025
8500.000000	82.265
8620.000000	82.369
8750.000000	82.297
8850.000000	82.099
9000.000000	81.573
9120.000000	80.972
9250.000000	80.168
9380.000000	79.241
9500.000000	78.309
9620.000000	77.335
9750.000000	76.268
9880.000000	75.239
10000.000000	74.383
10150.000000	73.559
10300.000000	73.168
10440.000000	73.268
10600.000000	73.847
10750.000000	74.636
10900.000000	75.476
11060.000000	76.303
11200.000000	76.921
11380.000000	77.567
11500.000000	77.918
11720.000000	78.456
11800.000000	78.633
12060.000000	79.207
12200.000000	79.533
12410.000000	80.042
12500.000000	80.259
12650.000000	80.600
12800.000000	80.893
13150.000000	81.247
13200.000000	81.251
13400.000000	81.134
13600.000000	80.815
13800.000000	80.323
14000.000000	79.711
14300.000000	78.702
14500.000000	78.050
14750.000000	77.301
15000.000000	76.590
15250.000000	75.844
15500.000000	75.017
15750.000000	74.155
16000.000000	73.416
16250.000000	73.000
16500.000000	72.995
16750.000000	73.288
17000.000000	73.670
17250.000000	73.965
17500.000000	74.072
17750.000000	73.946
18000.000000	73.584
18250.000000	73.008
18500.000000	72.260
18750.000000	71.405
19000.000000	70.520
19250.000000	69.700
19500.000000	69.031
19750.000000	68.573
20000.000000	68.345
