* Measurement data measured by REW V5.20.13
* Source: EXCL: Headset (USB-C to 3.5mm Headphone Jack Adapter), MICROPHONE (Master Volume), 0, volume: 0.260
* Format: 256k Log Swept Sine, 1 sweep at -12.0 dBFS with no timing reference
* Dated: Dec 29, 2023 10:10:31 PM
* REW Settings:
*  C-weighting compensation: Off
*  Target level: 75.0 dB
* Note: 
* Measurement: Satyr Geekria Pads mpore De
* Smoothing: 1/12 octave
* Frequency Step: 1/48 octave
* Start Frequency: 20.000 Hz
*
* Freq(Hz)	SPL(dB)	Phase(degrees)
20.000000	64.484	170.0106
20.299999	64.718	168.5008
20.600000	64.946	166.9382
20.900000	65.161	165.3293
21.200001	65.357	163.7216
21.400000	65.477	162.6857
21.799999	65.704	160.7685
22.000000	65.817	159.8977
22.400000	66.056	158.2932
22.700001	66.251	157.1343
23.000000	66.456	155.9445
23.299999	66.663	154.6859
23.600000	66.863	153.3578
24.000000	67.112	151.5397
24.299999	67.285	150.1986
24.700001	67.506	148.4912
25.000000	67.673	147.2609
25.400000	67.898	145.6313
25.799999	68.121	143.9462
26.200001	68.327	142.1934
26.500000	68.467	140.8701
26.900000	68.632	139.1703
27.200001	68.745	137.9842
27.600000	68.895	136.5331
28.000000	69.052	135.1906
28.500000	69.260	133.5615
29.000000	69.470	131.9200
29.500000	69.673	130.2999
30.000000	69.877	128.7596
30.400000	70.047	127.5706
30.700001	70.180	126.6708
31.100000	70.360	125.4213
31.500000	70.535	124.1060
32.000000	70.736	122.4304
32.500000	70.921	120.8149
33.000000	71.105	119.2844
33.500000	71.293	117.7723
34.000000	71.474	116.2275
34.500000	71.641	114.6970
35.000000	71.801	113.2622
35.500000	71.971	111.9075
36.000000	72.152	110.5009
36.500000	72.325	108.9370
37.000000	72.465	107.2700
37.500000	72.568	105.6709
38.200001	72.684	103.7587
38.700001	72.774	102.5681
39.500000	72.930	100.6724
40.000000	73.020	99.4492
40.599998	73.118	97.9947
41.200001	73.212	96.5641
41.799999	73.304	95.1238
42.500000	73.407	93.4288
43.099998	73.494	92.0011
43.700001	73.586	90.6071
44.400002	73.706	88.9971
45.000000	73.816	87.6199
45.500000	73.911	86.4743
46.200001	74.046	84.8687
46.799999	74.153	83.5023
47.500000	74.261	81.9877
48.200001	74.359	80.6292
48.700001	74.430	79.7340
49.400002	74.536	78.4714
50.000000	74.621	77.3029
50.799999	74.713	75.6252
51.500000	74.774	74.1101
52.200001	74.825	72.5826
53.000000	74.880	70.8517
53.799999	74.941	69.2009
54.500000	75.009	67.8402
55.200001	75.091	66.5580
56.000000	75.195	65.2300
57.000000	75.340	63.8196
58.000000	75.503	62.6921
59.000000	75.714	61.5346
60.000000	75.903	59.5387
60.799999	75.931	57.4078
61.500000	75.862	55.6321
62.200001	75.754	54.1204
63.000000	75.633	52.5815
64.000000	75.503	50.7150
65.000000	75.390	48.9133
66.000000	75.292	47.3251
67.000000	75.221	46.0929
68.000000	75.192	45.1705
69.000000	75.203	44.3649
70.000000	75.233	43.5063
71.000000	75.263	42.5112
72.000000	75.282	41.3619
73.000000	75.285	40.1049
74.000000	75.276	38.8176
75.000000	75.262	37.5598
76.199997	75.238	36.1509
77.500000	75.206	34.8028
78.800003	75.174	33.6332
80.000000	75.156	32.6138
81.199997	75.152	31.5157
82.500000	75.164	30.1218
83.800003	75.171	28.4371
85.000000	75.144	26.7244
86.199997	75.073	25.0513
87.500000	74.949	23.4794
88.500000	74.842	22.4977
90.000000	74.700	21.2139
91.199997	74.602	20.0991
92.500000	74.472	18.7695
93.800003	74.283	17.6310
95.000000	74.068	17.0766
96.199997	73.849	17.0848
97.500000	73.645	17.5848
98.800003	73.498	18.3436
100.000000	73.422	19.0622
101.500000	73.409	19.7310
103.000000	73.466	19.9419
104.400002	73.540	19.7594
106.000000	73.610	19.3768
107.500000	73.647	19.0206
109.000000	73.649	18.6892
110.599998	73.630	18.2786
112.000000	73.622	17.7527
113.800003	73.666	16.8067
115.000000	73.742	16.0677
117.199997	73.949	14.7554
118.000000	74.021	14.3116
120.599998	74.064	13.1646
122.000000	73.953	12.9826
124.099998	73.736	12.9313
125.000000	73.648	12.8250
126.500000	73.522	12.5043
128.000000	73.429	12.1123
131.500000	73.317	11.4793
132.000000	73.307	11.4269
134.000000	73.269	11.2559
136.000000	73.230	11.1153
138.000000	73.198	10.9705
140.000000	73.173	10.7170
143.000000	73.117	9.9923
145.000000	73.073	9.4143
147.500000	73.025	8.8170
150.000000	72.979	8.4598
152.500000	72.925	8.1192
155.000000	72.863	7.6125
157.500000	72.814	7.1541
160.000000	72.787	6.9825
162.500000	72.759	6.9753
165.000000	72.710	6.8060
167.500000	72.640	6.3814
170.000000	72.572	5.9471
172.500000	72.515	5.6959
175.000000	72.463	5.6230
177.500000	72.415	5.6330
180.000000	72.380	5.6315
182.500000	72.357	5.5660
185.000000	72.336	5.4534
187.500000	72.314	5.3402
190.000000	72.291	5.2378
192.500000	72.268	5.1267
195.000000	72.245	5.0024
197.500000	72.222	4.8831
200.000000	72.198	4.7709
203.000000	72.167	4.5980
206.000000	72.131	4.3397
209.000000	72.087	4.0598
212.000000	72.032	3.8549
214.000000	71.991	3.7781
218.000000	71.911	3.7517
220.000000	71.875	3.7929
224.000000	71.815	3.9467
227.000000	71.779	4.0692
230.000000	71.750	4.1638
233.000000	71.723	4.2297
236.000000	71.697	4.2757
240.000000	71.665	4.3350
243.000000	71.642	4.3990
247.000000	71.611	4.5167
250.000000	71.587	4.6369
254.000000	71.556	4.8250
258.000000	71.528	5.0015
262.000000	71.505	5.1868
265.000000	71.494	5.3542
269.000000	71.489	5.5771
272.000000	71.489	5.7053
276.000000	71.487	5.8028
280.000000	71.478	5.8430
285.000000	71.461	5.8912
290.000000	71.438	5.9850
295.000000	71.413	6.1115
300.000000	71.394	6.2726
304.000000	71.386	6.4647
307.000000	71.380	6.6289
311.000000	71.369	6.8566
315.000000	71.359	7.1031
320.000000	71.351	7.4278
325.000000	71.352	7.7419
330.000000	71.362	8.0370
335.000000	71.378	8.2988
340.000000	71.397	8.5135
345.000000	71.411	8.6863
350.000000	71.419	8.8281
355.000000	71.421	8.9714
360.000000	71.423	9.1597
365.000000	71.427	9.3946
370.000000	71.433	9.6320
375.000000	71.439	9.8495
382.000000	71.447	10.1619
387.000000	71.455	10.4233
395.000000	71.478	10.8746
400.000000	71.496	11.1487
406.000000	71.520	11.4734
412.000000	71.548	11.7979
418.000000	71.577	12.0965
425.000000	71.613	12.3685
431.000000	71.643	12.5718
437.000000	71.673	12.8007
444.000000	71.710	13.1098
450.000000	71.748	13.3881
455.000000	71.785	13.6077
462.000000	71.839	13.8666
468.000000	71.886	14.0364
475.000000	71.937	14.2057
482.000000	71.981	14.4039
487.000000	72.012	14.5781
494.000000	72.060	14.8361
500.000000	72.108	15.0371
508.000000	72.175	15.2599
515.000000	72.236	15.4132
522.000000	72.298	15.5154
530.000000	72.369	15.5560
538.000000	72.436	15.5374
545.000000	72.487	15.5143
552.000000	72.533	15.4995
560.000000	72.579	15.4835
570.000000	72.630	15.4503
580.000000	72.674	15.4032
590.000000	72.709	15.3784
600.000000	72.739	15.4188
608.000000	72.761	15.4960
615.000000	72.783	15.5840
622.000000	72.807	15.6810
630.000000	72.837	15.7926
640.000000	72.879	15.9276
650.000000	72.925	16.0703
660.000000	72.981	16.2073
670.000000	73.050	16.2699
680.000000	73.121	16.1630
690.000000	73.172	15.8218
700.000000	73.164	15.3561
710.000000	73.079	15.1765
720.000000	72.975	15.7124
730.000000	72.951	16.7567
740.000000	73.021	17.6865
750.000000	73.125	18.2604
762.000000	73.245	18.6556
775.000000	73.364	18.9252
788.000000	73.477	19.0845
800.000000	73.579	19.1471
812.000000	73.679	19.1084
825.000000	73.774	18.9480
838.000000	73.849	18.7274
850.000000	73.900	18.5420
862.000000	73.940	18.4053
875.000000	73.980	18.3106
885.000000	74.012	18.2657
900.000000	74.068	18.2025
912.000000	74.118	18.0973
925.000000	74.169	17.8774
938.000000	74.210	17.5253
950.000000	74.232	17.0571
962.000000	74.221	16.4405
975.000000	74.145	15.7084
988.000000	73.976	15.2323
1000.000000	73.749	15.4384
1015.000000	73.468	16.9246
1030.000000	73.331	19.3939
1044.000000	73.381	21.7826
1060.000000	73.584	23.9672
1075.000000	73.835	25.3126
1090.000000	74.086	26.0334
1106.000000	74.318	26.3253
1120.000000	74.483	26.3662
1138.000000	74.654	26.2903
1150.000000	74.746	26.2131
1172.000000	74.881	26.1516
1180.000000	74.924	26.1718
1206.000000	75.061	26.2971
1220.000000	75.124	26.3398
1241.000000	75.178	26.5279
1250.000000	75.192	26.7645
1265.000000	75.236	27.4031
1280.000000	75.330	28.1447
1315.000000	75.648	29.2510
1320.000000	75.694	29.3477
1340.000000	75.879	29.6979
1360.000000	76.076	29.9638
1380.000000	76.280	30.0741
1400.000000	76.478	30.0374
1430.000000	76.768	29.6772
1450.000000	76.945	29.1421
1475.000000	77.108	28.1929
1500.000000	77.187	27.2220
1525.000000	77.183	26.6351
1550.000000	77.163	26.8893
1575.000000	77.251	27.6653
1600.000000	77.432	28.1146
1625.000000	77.620	28.0927
1650.000000	77.788	27.8218
1675.000000	77.933	27.4205
1700.000000	78.050	26.9691
1725.000000	78.143	26.5583
1750.000000	78.220	26.2665
1775.000000	78.299	26.1022
1800.000000	78.393	25.9772
1825.000000	78.498	25.7845
1850.000000	78.602	25.4791
1875.000000	78.695	25.0766
1900.000000	78.775	24.5843
1925.000000	78.835	23.9867
1950.000000	78.859	23.3062
1975.000000	78.835	22.6290
2000.000000	78.749	22.0998
2030.000000	78.555	22.0629
2060.000000	78.319	23.2759
2090.000000	78.195	25.8311
2120.000000	78.310	28.9185
2140.000000	78.511	30.7523
2180.000000	79.060	33.2012
2200.000000	79.351	33.8281
2240.000000	79.906	34.2165
2270.000000	80.281	33.9619
2300.000000	80.612	33.3956
2330.000000	80.898	32.6752
2360.000000	81.147	31.9424
2400.000000	81.452	31.0894
2430.000000	81.681	30.5523
2470.000000	82.007	29.8265
2500.000000	82.259	29.1689
2540.000000	82.594	28.1376
2580.000000	82.933	26.9607
2620.000000	83.278	25.5854
2650.000000	83.537	24.3831
2690.000000	83.872	22.5140
2720.000000	84.109	20.9032
2760.000000	84.393	18.5030
2800.000000	84.635	15.9095
2850.000000	84.888	12.5455
2900.000000	85.102	9.0214
2950.000000	85.268	5.2653
3000.000000	85.374	1.2964
3040.000000	85.409	-1.9742
3070.000000	85.405	-4.4459
3110.000000	85.364	-7.7354
3150.000000	85.286	-11.0150
3200.000000	85.131	-15.1213
3250.000000	84.900	-19.1990
3300.000000	84.580	-23.0728
3350.000000	84.177	-26.4877
3400.000000	83.727	-29.2787
3450.000000	83.283	-31.5961
3500.000000	82.858	-33.7537
3550.000000	82.426	-35.8569
3600.000000	81.969	-37.8517
3650.000000	81.478	-39.6710
3700.000000	80.946	-41.1935
3750.000000	80.376	-42.2589
3820.000000	79.565	-42.8226
3870.000000	79.028	-42.6864
3950.000000	78.297	-42.2586
4000.000000	77.892	-42.1284
4060.000000	77.420	-42.0896
4120.000000	76.956	-42.1638
4180.000000	76.489	-42.3855
4250.000000	75.919	-42.8774
4310.000000	75.374	-43.4614
4370.000000	74.741	-43.9184
4440.000000	73.885	-43.7994
4500.000000	73.085	-42.9076
4550.000000	72.404	-41.6355
4620.000000	71.454	-39.2041
4680.000000	70.636	-36.5251
4750.000000	69.661	-32.4405
4820.000000	68.679	-26.8612
4870.000000	68.022	-21.7601
4940.000000	67.301	-13.1427
5000.000000	67.011	-4.8828
5080.000000	67.240	5.9491
5150.000000	67.915	13.6442
5220.000000	68.765	18.6808
5300.000000	69.701	21.2704
5380.000000	70.511	21.3508
5450.000000	71.132	19.7566
5520.000000	71.641	16.3156
5600.000000	71.921	9.9004
5700.000000	71.545	0.2216
5800.000000	70.307	-6.7574
5900.000000	68.437	-7.6500
6000.000000	66.349	-2.1323
6080.000000	64.896	5.4114
6150.000000	64.005	12.7167
6220.000000	63.497	19.4544
6300.000000	63.209	25.7383
6400.000000	62.932	31.9335
6500.000000	62.567	37.8928
6600.000000	62.200	44.6963
6700.000000	61.996	52.0830
6800.000000	62.006	59.2233
6900.000000	62.162	65.6299
7000.000000	62.395	71.2932
7100.000000	62.689	76.2795
7200.000000	63.028	80.4412
7300.000000	63.346	83.6760
7400.000000	63.584	86.3198
7500.000000	63.756	88.9324
7620.000000	63.981	92.4355
7750.000000	64.380	96.3794
7880.000000	64.992	99.6589
8000.000000	65.712	101.3050
8120.000000	66.481	100.9144
8250.000000	67.197	97.7643
8380.000000	67.634	92.1464
8500.000000	67.716	85.6989
8620.000000	67.482	79.1492
8750.000000	66.941	72.9743
8850.000000	66.391	69.1909
9000.000000	65.473	65.2053
9120.000000	64.785	63.3096
9250.000000	64.247	61.8307
9380.000000	64.012	59.7737
9500.000000	64.013	56.4094
9620.000000	64.092	51.2736
9750.000000	64.134	44.0098
9880.000000	64.069	35.7043
10000.000000	63.927	27.7106
10150.000000	63.698	17.7745
10300.000000	63.500	8.0464
10440.000000	63.405	-1.1034
10600.000000	63.426	-12.4507
10750.000000	63.487	-25.1102
10900.000000	63.385	-40.7596
11060.000000	62.824	-60.9374
11200.000000	61.785	-80.9765
11380.000000	59.641	-110.0053
11500.000000	57.803	-132.4851
11720.000000	54.713	178.8463
11800.000000	54.360	160.4263
12060.000000	56.901	111.4819
12200.000000	58.976	94.6761
12410.000000	61.798	78.3628
12500.000000	62.875	73.2354
12650.000000	64.508	65.7598
12800.000000	65.939	58.6172
13150.000000	68.419	40.5227
13200.000000	68.677	37.8058
13400.000000	69.523	27.0005
13600.000000	70.164	16.2811
13800.000000	70.646	4.8777
14000.000000	70.877	-8.0719
14300.000000	70.422	-29.7422
14500.000000	69.441	-43.2477
14750.000000	67.469	-55.3107
15000.000000	64.802	-58.7579
15250.000000	61.748	-52.3782
15500.000000	59.105	-40.6168
15750.000000	57.802	-29.8019
16000.000000	57.799	-22.8678
16250.000000	58.399	-21.2876
16500.000000	58.980	-25.4897
16750.000000	59.209	-34.5101
17000.000000	58.917	-46.4636
17250.000000	58.073	-59.0676
17500.000000	56.786	-70.9246
17750.000000	55.172	-81.5302
18000.000000	53.249	-89.7472
18250.000000	51.024	-93.7100
18500.000000	48.754	-93.2095
18750.000000	47.204	-91.6475
19000.000000	47.152	-93.9285
19250.000000	48.246	-103.6050
19500.000000	49.529	-121.5338
19750.000000	50.427	-143.1748
