* Measurement data measured by REW V5.31.1
* Source: EXCL: Headset (USB-C to 3.5mm Headphone Jack Adapter), MICROPHONE (Master Volume), 0, volume: 0.420. Timing signal peak level -32.8 dBFS, measurement signal peak level -26.3 dBFS
* Format: 256k Log Swept Sine, 1 sweep at -12.0 dBFS using an acoustic timing reference
* Dated: Jul 12, 2024 10:02:20 PM
* REW Settings:
*  C-weighting compensation: Off
*  Target level: 75.0 dB
* Note: Delay -0.0420 ms (-14 mm, -0.57 in) using estimated IR delay relative to Acoustic reference played from  L with no timing offset Clock adjustment: 1.1 ppm
* Measurement: L s2 Geekria
* Smoothing: 1/12 octave
* Frequency Step: 1/48 octave
* Start Frequency: 20.000 Hz
*
* Freq(Hz)	SPL(dB)	Phase(degrees)
20.000000	65.204	-33.4159
20.299999	65.451	-34.3512
20.600000	65.706	-35.3421
20.900000	65.958	-36.4302
21.200001	66.193	-37.5883
21.400000	66.336	-38.3587
21.799999	66.598	-39.7630
22.000000	66.725	-40.3576
22.400000	67.002	-41.3491
22.700001	67.243	-42.0366
23.000000	67.510	-42.8237
23.299999	67.785	-43.8063
23.600000	68.043	-44.9954
24.000000	68.330	-46.7524
24.299999	68.494	-48.0207
24.700001	68.666	-49.4055
25.000000	68.786	-50.1467
25.400000	68.973	-50.8200
25.799999	69.206	-51.3669
26.200001	69.470	-52.0212
26.500000	69.669	-52.6361
26.900000	69.917	-53.5798
27.200001	70.089	-54.3242
27.600000	70.303	-55.3057
28.000000	70.509	-56.2634
28.500000	70.761	-57.4648
29.000000	71.007	-58.7100
29.500000	71.245	-60.0113
30.000000	71.475	-61.3827
30.400000	71.649	-62.5321
30.700001	71.771	-63.4069
31.100000	71.920	-64.5444
31.500000	72.060	-65.5972
32.000000	72.242	-66.7725
32.500000	72.446	-67.8804
33.000000	72.668	-69.0571
33.500000	72.885	-70.3474
34.000000	73.083	-71.6766
34.500000	73.266	-72.9489
35.000000	73.445	-74.1461
35.500000	73.626	-75.3249
36.000000	73.802	-76.5414
36.500000	73.965	-77.7946
37.000000	74.110	-79.0388
37.500000	74.243	-80.2310
38.200001	74.422	-81.8053
38.700001	74.553	-82.9024
39.500000	74.763	-84.6900
40.000000	74.890	-85.8304
40.599998	75.037	-87.1893
41.200001	75.180	-88.5126
41.799999	75.323	-89.8087
42.500000	75.487	-91.3175
43.099998	75.620	-92.6064
43.700001	75.743	-93.8694
44.400002	75.876	-95.3077
45.000000	75.982	-96.5322
45.500000	76.062	-97.5522
46.200001	76.160	-98.9656
46.799999	76.234	-100.1566
47.500000	76.312	-101.5152
48.200001	76.384	-102.8098
48.700001	76.440	-103.6946
49.400002	76.529	-104.9399
50.000000	76.606	-106.0564
50.799999	76.690	-107.5251
51.500000	76.753	-108.6605
52.200001	76.822	-109.6518
53.000000	76.909	-110.6701
53.799999	77.007	-111.5714
54.500000	77.114	-112.3598
55.200001	77.230	-113.3129
56.000000	77.342	-114.6073
57.000000	77.444	-116.2430
58.000000	77.556	-117.8710
59.000000	77.669	-119.7310
60.000000	77.744	-121.6509
60.799999	77.790	-123.0413
61.500000	77.835	-124.1586
62.200001	77.884	-125.2399
63.000000	77.936	-126.4705
64.000000	77.987	-128.0079
65.000000	78.014	-129.5212
66.000000	78.023	-130.9935
67.000000	78.024	-132.4474
68.000000	78.020	-133.9157
69.000000	78.007	-135.3792
70.000000	77.985	-136.7720
71.000000	77.955	-138.0283
72.000000	77.917	-139.1041
73.000000	77.875	-139.9428
74.000000	77.843	-140.5408
75.000000	77.835	-141.0301
76.199997	77.853	-141.6371
77.500000	77.903	-142.4548
78.800003	77.967	-143.5757
80.000000	78.017	-144.7908
81.199997	78.054	-146.0524
82.500000	78.080	-147.3957
83.800003	78.093	-148.6872
85.000000	78.092	-149.8425
86.199997	78.081	-150.9713
87.500000	78.061	-152.1811
88.500000	78.044	-153.0985
90.000000	78.015	-154.4517
91.199997	77.986	-155.4947
92.500000	77.947	-156.5665
93.800003	77.896	-157.5734
95.000000	77.837	-158.4376
96.199997	77.775	-159.2467
97.500000	77.714	-160.0724
98.800003	77.670	-160.8991
100.000000	77.642	-161.7150
101.500000	77.608	-162.7493
103.000000	77.574	-163.7136
104.400002	77.542	-164.5887
106.000000	77.496	-165.6378
107.500000	77.436	-166.6065
109.000000	77.375	-167.5099
110.599998	77.313	-168.4393
112.000000	77.256	-169.2069
113.800003	77.174	-170.1451
115.000000	77.112	-170.7522
117.199997	76.991	-171.8263
118.000000	76.948	-172.2145
120.599998	76.811	-173.4035
122.000000	76.741	-173.9596
124.099998	76.634	-174.7632
125.000000	76.584	-175.0978
126.500000	76.499	-175.6545
128.000000	76.414	-176.2429
131.500000	76.210	-177.7354
132.000000	76.180	-177.9493
134.000000	76.054	-178.7816
136.000000	75.924	-179.5887
138.000000	75.782	179.6032
140.000000	75.618	178.8028
143.000000	75.314	177.6991
145.000000	75.069	177.1411
147.500000	74.727	176.8382
150.000000	74.372	177.1671
152.500000	74.049	178.1769
155.000000	73.803	179.6725
157.500000	73.653	-178.6755
160.000000	73.590	-177.1710
162.500000	73.584	-175.9762
165.000000	73.602	-175.1157
167.500000	73.621	-174.4892
170.000000	73.634	-173.9975
172.500000	73.641	-173.6141
175.000000	73.641	-173.3278
177.500000	73.635	-173.1193
180.000000	73.624	-172.9433
182.500000	73.609	-172.7560
185.000000	73.589	-172.5586
187.500000	73.566	-172.3600
190.000000	73.545	-172.1529
192.500000	73.527	-171.9172
195.000000	73.514	-171.6306
197.500000	73.507	-171.2987
200.000000	73.505	-170.9535
203.000000	73.505	-170.5627
206.000000	73.509	-170.2259
209.000000	73.522	-169.9470
212.000000	73.545	-169.7212
214.000000	73.563	-169.6051
218.000000	73.598	-169.4831
220.000000	73.612	-169.4677
224.000000	73.636	-169.4820
227.000000	73.648	-169.5230
230.000000	73.653	-169.5900
233.000000	73.649	-169.6721
236.000000	73.636	-169.7563
240.000000	73.600	-169.8726
243.000000	73.560	-169.9564
247.000000	73.497	-170.0097
250.000000	73.445	-169.9868
254.000000	73.377	-169.8650
258.000000	73.309	-169.6021
262.000000	73.247	-169.1855
265.000000	73.210	-168.7969
269.000000	73.177	-168.2222
272.000000	73.166	-167.7756
276.000000	73.168	-167.2165
280.000000	73.184	-166.7367
285.000000	73.221	-166.2508
290.000000	73.265	-165.9456
295.000000	73.302	-165.8575
300.000000	73.324	-165.9207
304.000000	73.328	-166.0426
307.000000	73.324	-166.1520
311.000000	73.305	-166.2852
315.000000	73.268	-166.3769
320.000000	73.197	-166.4113
325.000000	73.109	-166.3357
330.000000	73.012	-166.1451
335.000000	72.909	-165.8220
340.000000	72.805	-165.3282
345.000000	72.707	-164.6374
350.000000	72.625	-163.7727
355.000000	72.563	-162.7823
360.000000	72.523	-161.7045
365.000000	72.505	-160.5921
370.000000	72.512	-159.4859
375.000000	72.544	-158.4244
382.000000	72.625	-157.0788
387.000000	72.700	-156.2395
395.000000	72.834	-155.1267
400.000000	72.922	-154.5692
406.000000	73.028	-154.0222
412.000000	73.130	-153.5976
418.000000	73.225	-153.2809
425.000000	73.323	-153.0154
431.000000	73.396	-152.8482
437.000000	73.457	-152.7218
444.000000	73.515	-152.6106
450.000000	73.551	-152.5288
455.000000	73.573	-152.4551
462.000000	73.588	-152.3138
468.000000	73.587	-152.1318
475.000000	73.574	-151.8214
482.000000	73.554	-151.3735
487.000000	73.540	-150.9511
494.000000	73.530	-150.2032
500.000000	73.537	-149.4244
508.000000	73.582	-148.2487
515.000000	73.660	-147.1936
522.000000	73.772	-146.2328
530.000000	73.931	-145.3558
538.000000	74.104	-144.7624
545.000000	74.252	-144.4668
552.000000	74.390	-144.3357
560.000000	74.528	-144.3222
570.000000	74.673	-144.4166
580.000000	74.790	-144.5724
590.000000	74.881	-144.7581
600.000000	74.946	-144.9294
608.000000	74.980	-145.0244
615.000000	74.998	-145.0545
622.000000	75.006	-145.0106
630.000000	75.008	-144.8368
640.000000	75.013	-144.4075
650.000000	75.038	-143.7879
660.000000	75.094	-143.0940
670.000000	75.176	-142.4447
680.000000	75.274	-141.9038
690.000000	75.377	-141.4723
700.000000	75.480	-141.1210
710.000000	75.583	-140.8239
720.000000	75.685	-140.5792
730.000000	75.785	-140.3997
740.000000	75.878	-140.2770
750.000000	75.960	-140.1731
762.000000	76.046	-140.0106
775.000000	76.136	-139.7579
788.000000	76.229	-139.4767
800.000000	76.312	-139.2299
812.000000	76.388	-138.9561
825.000000	76.469	-138.5390
838.000000	76.570	-137.9793
850.000000	76.692	-137.4374
862.000000	76.839	-137.0037
875.000000	77.010	-136.7296
885.000000	77.140	-136.6434
900.000000	77.324	-136.6421
912.000000	77.461	-136.7022
925.000000	77.602	-136.8067
938.000000	77.733	-136.9499
950.000000	77.848	-137.0997
962.000000	77.956	-137.2462
975.000000	78.071	-137.3907
988.000000	78.185	-137.5140
1000.000000	78.294	-137.6163
1015.000000	78.440	-137.7668
1030.000000	78.597	-137.9947
1044.000000	78.749	-138.3352
1060.000000	78.915	-138.9111
1075.000000	79.051	-139.5903
1090.000000	79.164	-140.3116
1106.000000	79.268	-141.0650
1120.000000	79.351	-141.7181
1138.000000	79.449	-142.5832
1150.000000	79.506	-143.1837
1172.000000	79.590	-144.2930
1180.000000	79.617	-144.6800
1206.000000	79.706	-146.0017
1220.000000	79.741	-146.8530
1241.000000	79.747	-148.1889
1250.000000	79.735	-148.7196
1265.000000	79.703	-149.5213
1280.000000	79.664	-150.2513
1315.000000	79.542	-151.8328
1320.000000	79.519	-152.0424
1340.000000	79.416	-152.8118
1360.000000	79.295	-153.4955
1380.000000	79.145	-154.0472
1400.000000	78.975	-154.3065
1430.000000	78.736	-154.2281
1450.000000	78.591	-154.0206
1475.000000	78.413	-153.6665
1500.000000	78.219	-153.1601
1525.000000	78.004	-152.2251
1550.000000	77.818	-150.5954
1575.000000	77.733	-148.5219
1600.000000	77.758	-146.5165
1625.000000	77.860	-144.8882
1650.000000	77.993	-143.7457
1675.000000	78.120	-143.0091
1700.000000	78.226	-142.5391
1725.000000	78.294	-142.2783
1750.000000	78.308	-141.9849
1775.000000	78.292	-141.3471
1800.000000	78.298	-140.4000
1825.000000	78.338	-139.4030
1850.000000	78.394	-138.5024
1875.000000	78.447	-137.6461
1900.000000	78.493	-136.7193
1925.000000	78.544	-135.6284
1950.000000	78.618	-134.3572
1975.000000	78.735	-132.9818
2000.000000	78.904	-131.6946
2030.000000	79.139	-130.5859
2060.000000	79.344	-129.8415
2090.000000	79.517	-128.9618
2120.000000	79.720	-127.8013
2140.000000	79.890	-127.0337
2180.000000	80.283	-125.8755
2200.000000	80.489	-125.4983
2240.000000	80.905	-125.0668
2270.000000	81.213	-125.0100
2300.000000	81.511	-125.1466
2330.000000	81.797	-125.4258
2360.000000	82.077	-125.8180
2400.000000	82.441	-126.6285
2430.000000	82.682	-127.4829
2470.000000	82.942	-128.6957
2500.000000	83.108	-129.4829
2540.000000	83.328	-130.3940
2580.000000	83.550	-131.3076
2620.000000	83.770	-132.2573
2650.000000	83.935	-132.9953
2690.000000	84.156	-134.0612
2720.000000	84.318	-134.9463
2760.000000	84.523	-136.2388
2800.000000	84.709	-137.6437
2850.000000	84.907	-139.4721
2900.000000	85.074	-141.2843
2950.000000	85.223	-143.0552
3000.000000	85.363	-144.8028
3040.000000	85.472	-146.2065
3070.000000	85.553	-147.2872
3110.000000	85.656	-148.7747
3150.000000	85.754	-150.3131
3200.000000	85.869	-152.3363
3250.000000	85.970	-154.5159
3300.000000	86.047	-156.8321
3350.000000	86.097	-159.2576
3400.000000	86.117	-161.7944
3450.000000	86.100	-164.4144
3500.000000	86.045	-167.0669
3550.000000	85.955	-169.7502
3600.000000	85.820	-172.4692
3650.000000	85.632	-175.1677
3700.000000	85.382	-177.7343
3750.000000	85.077	179.9665
3820.000000	84.587	177.3728
3870.000000	84.221	175.9818
3950.000000	83.650	174.4023
4000.000000	83.313	173.6912
4060.000000	82.926	173.0064
4120.000000	82.548	172.4654
4180.000000	82.172	172.0800
4250.000000	81.736	171.8929
4310.000000	81.374	171.9713
4370.000000	81.030	172.2008
4440.000000	80.645	172.6058
4500.000000	80.324	173.0941
4550.000000	80.064	173.6166
4620.000000	79.711	174.5549
4680.000000	79.426	175.5823
4750.000000	79.127	177.0367
4820.000000	78.877	178.7171
4870.000000	78.733	-179.9834
4940.000000	78.588	-178.0884
5000.000000	78.519	-176.4627
5080.000000	78.507	-174.4223
5150.000000	78.569	-172.8732
5220.000000	78.691	-171.6744
5300.000000	78.885	-170.8807
5380.000000	79.103	-170.7839
5450.000000	79.290	-171.2771
5520.000000	79.449	-172.2813
5600.000000	79.571	-173.9603
5700.000000	79.596	-176.5683
5800.000000	79.464	-179.2880
5900.000000	79.195	178.3345
6000.000000	78.841	176.6449
6080.000000	78.548	175.8121
6150.000000	78.307	175.3401
6220.000000	78.081	174.9991
6300.000000	77.832	174.7234
6400.000000	77.525	174.6857
6500.000000	77.263	175.1956
6600.000000	77.128	176.0657
6700.000000	77.161	176.5563
6800.000000	77.296	175.9249
6900.000000	77.409	174.0133
7000.000000	77.406	171.1738
7100.000000	77.249	167.9185
7200.000000	76.940	164.7100
7300.000000	76.508	161.8779
7400.000000	75.996	159.5950
7500.000000	75.447	157.8814
7620.000000	74.795	156.4005
7750.000000	74.127	155.0703
7880.000000	73.465	153.5902
8000.000000	72.795	152.1662
8120.000000	72.053	151.0702
8250.000000	71.222	150.4576
8380.000000	70.435	150.1618
8500.000000	69.771	149.5989
8620.000000	69.129	148.2370
8750.000000	68.360	145.5692
8850.000000	67.636	142.7291
9000.000000	66.181	137.8082
9120.000000	64.599	134.2732
9250.000000	62.407	132.5237
9380.000000	59.779	136.0487
9500.000000	57.330	151.8167
9620.000000	55.936	-167.1831
9750.000000	56.590	-128.8953
9880.000000	58.387	-117.8744
10000.000000	59.937	-116.7229
10150.000000	61.340	-119.2730
10300.000000	62.229	-122.9164
10440.000000	62.746	-126.1478
10600.000000	63.112	-129.2388
10750.000000	63.337	-131.4295
10900.000000	63.539	-132.9044
11060.000000	63.838	-133.8461
11200.000000	64.251	-134.5761
11380.000000	64.988	-136.4585
11500.000000	65.521	-138.8438
11720.000000	66.299	-145.4417
11800.000000	66.476	-148.1927
12060.000000	66.742	-156.6682
12200.000000	66.804	-160.5080
12410.000000	66.978	-165.6357
12500.000000	67.097	-167.9172
12650.000000	67.306	-172.1955
12800.000000	67.457	-177.0758
13150.000000	67.483	170.6625
13200.000000	67.462	168.8451
13400.000000	67.307	161.3110
13600.000000	67.024	153.5974
13800.000000	66.715	145.8289
14000.000000	66.500	137.3189
14300.000000	66.438	121.4140
14500.000000	66.638	107.5279
14750.000000	67.187	84.7809
15000.000000	67.962	54.4892
15250.000000	68.645	15.8755
15500.000000	68.888	-29.1521
15750.000000	68.587	-75.7972
16000.000000	67.879	-119.7355
16250.000000	67.031	-159.6441
16500.000000	66.365	163.6841
16750.000000	66.124	128.8532
17000.000000	66.327	94.6522
17250.000000	66.725	60.3504
17500.000000	66.950	25.8646
17750.000000	66.708	-8.2353
18000.000000	65.863	-40.9465
18250.000000	64.420	-71.2891
18500.000000	62.514	-98.6252
18750.000000	60.487	-123.1385
19000.000000	59.022	-146.7700
19250.000000	58.676	-173.3492
19500.000000	59.033	154.6982
19750.000000	59.381	122.4513
20000.000000	59.510	102.8582
