* Measurement data measured by REW V5.20.13
* Source: EXCL: Headset (USB-C to 3.5mm Headphone Jack Adapter), MICROPHONE (Master Volume), 0, volume: 0.260
* Format: 256k Log Swept Sine, 1 sweep at -12.0 dBFS with no timing reference
* Dated: Oct 30, 2023 5:31:57 PM
* REW Settings:
*  C-weighting compensation: Off
*  Target level: 75.0 dB
* Note: 
* Measurement: Satyr1 Yaxi Pads
* Smoothing: 1/12 octave
* Frequency Step: 1/48 octave
* Start Frequency: 20.000 Hz
*
* Freq(Hz)	SPL(dB)	Phase(degrees)
20.000000	68.156	174.8564
20.299999	68.497	172.8804
20.600000	68.818	170.9368
20.900000	69.116	169.0225
21.200001	69.391	167.1455
21.400000	69.560	165.9260
21.799999	69.871	163.5942
22.000000	70.015	162.4902
22.400000	70.289	160.3993
22.700001	70.487	158.9082
23.000000	70.680	157.4552
23.299999	70.867	156.0221
23.600000	71.049	154.6021
24.000000	71.282	152.7358
24.299999	71.453	151.3610
24.700001	71.681	149.5503
25.000000	71.853	148.1887
25.400000	72.082	146.3357
25.799999	72.307	144.4128
26.200001	72.521	142.4141
26.500000	72.670	140.8730
26.900000	72.847	138.7905
27.200001	72.962	137.2385
27.600000	73.091	135.2513
28.000000	73.199	133.4304
28.500000	73.329	131.4366
29.000000	73.476	129.6384
29.500000	73.638	127.8253
30.000000	73.782	125.9243
30.400000	73.870	124.4556
30.700001	73.927	123.4741
31.100000	74.009	122.3738
31.500000	74.123	121.4346
32.000000	74.320	120.1965
32.500000	74.545	118.5940
33.000000	74.746	116.6021
33.500000	74.897	114.4457
34.000000	75.011	112.3542
34.500000	75.109	110.3922
35.000000	75.201	108.5264
35.500000	75.290	106.7520
36.000000	75.382	105.0891
36.500000	75.489	103.4968
37.000000	75.610	101.8612
37.500000	75.726	100.1077
38.200001	75.844	97.5950
38.700001	75.896	95.9580
39.500000	75.971	93.7634
40.000000	76.032	92.5437
40.599998	76.118	91.0781
41.200001	76.206	89.5264
41.799999	76.287	87.8340
42.500000	76.353	85.6665
43.099998	76.377	83.7214
43.700001	76.374	81.8019
44.400002	76.356	79.6530
45.000000	76.339	77.8796
45.500000	76.321	76.4539
46.200001	76.288	74.6052
46.799999	76.250	73.2776
47.500000	76.209	72.1841
48.200001	76.206	71.5840
48.700001	76.238	71.3329
49.400002	76.319	70.9912
50.000000	76.399	70.5933
50.799999	76.489	69.8977
51.500000	76.543	69.1820
52.200001	76.587	68.4039
53.000000	76.655	67.3848
53.799999	76.759	65.9961
54.500000	76.852	64.3954
55.200001	76.924	62.6843
56.000000	77.005	61.0186
57.000000	77.179	59.5665
58.000000	77.473	58.4767
59.000000	77.814	56.8206
60.000000	77.937	54.2083
60.799999	77.776	52.5242
61.500000	77.533	51.9843
62.200001	77.302	52.0654
63.000000	77.108	52.2644
64.000000	76.953	52.1101
65.000000	76.865	51.4230
66.000000	76.834	50.3824
67.000000	76.861	49.2388
68.000000	76.940	48.1248
69.000000	77.044	47.0798
70.000000	77.142	46.0758
71.000000	77.210	45.0676
72.000000	77.237	44.0367
73.000000	77.231	42.9553
74.000000	77.203	41.7960
75.000000	77.159	40.6354
76.199997	77.107	39.4254
77.500000	77.083	38.3844
78.800003	77.086	37.5012
80.000000	77.088	36.7396
81.199997	77.080	36.0039
82.500000	77.071	35.1625
83.800003	77.066	34.1779
85.000000	77.054	33.2427
86.199997	77.048	32.4634
87.500000	77.063	31.7695
88.500000	77.080	31.2635
90.000000	77.092	30.4915
91.199997	77.085	29.8374
92.500000	77.064	29.0531
93.800003	77.035	28.2072
95.000000	77.008	27.4331
96.199997	76.985	26.7173
97.500000	76.968	26.0400
98.800003	76.957	25.4435
100.000000	76.949	24.8955
101.500000	76.932	24.1233
103.000000	76.899	23.2739
104.400002	76.864	22.5160
106.000000	76.840	21.7239
107.500000	76.831	20.9950
109.000000	76.819	20.2709
110.599998	76.798	19.5385
112.000000	76.783	18.9236
113.800003	76.773	18.1666
115.000000	76.770	17.7198
117.199997	76.759	17.0842
118.000000	76.751	16.8834
120.599998	76.686	15.9631
122.000000	76.615	15.2507
124.099998	76.480	14.1877
125.000000	76.426	13.8203
126.500000	76.350	13.3689
128.000000	76.285	13.1201
131.500000	76.135	13.1504
132.000000	76.115	13.1674
134.000000	76.048	13.1404
136.000000	76.008	12.9586
138.000000	75.992	12.6493
140.000000	75.969	12.2711
143.000000	75.889	11.7477
145.000000	75.839	11.3835
147.500000	75.802	10.8292
150.000000	75.773	10.3373
152.500000	75.739	10.0400
155.000000	75.727	9.8583
157.500000	75.759	9.6748
160.000000	75.793	9.4973
162.500000	75.770	9.4894
165.000000	75.718	9.6110
167.500000	75.682	9.5557
170.000000	75.663	9.3082
172.500000	75.647	9.0411
175.000000	75.628	8.8065
177.500000	75.610	8.5562
180.000000	75.590	8.2520
182.500000	75.559	7.9438
185.000000	75.516	7.6956
187.500000	75.465	7.5323
190.000000	75.400	7.4791
192.500000	75.320	7.5350
195.000000	75.248	7.6105
197.500000	75.219	7.5481
200.000000	75.238	7.2721
203.000000	75.270	6.8591
206.000000	75.269	6.6052
209.000000	75.242	6.5093
212.000000	75.208	6.4958
214.000000	75.187	6.5061
218.000000	75.154	6.4790
220.000000	75.141	6.4260
224.000000	75.118	6.2817
227.000000	75.108	6.1643
230.000000	75.101	6.0754
233.000000	75.078	6.0791
236.000000	75.035	6.1776
240.000000	74.977	6.2817
243.000000	74.951	6.2701
247.000000	74.930	6.2544
250.000000	74.921	6.2662
254.000000	74.923	6.2661
258.000000	74.932	6.2603
262.000000	74.929	6.2926
265.000000	74.920	6.4155
269.000000	74.921	6.6768
272.000000	74.935	6.8187
276.000000	74.961	6.8472
280.000000	74.983	6.7911
285.000000	75.006	6.7345
290.000000	75.027	6.6952
295.000000	75.035	6.7616
300.000000	75.032	6.8853
304.000000	75.019	6.8870
307.000000	75.009	6.8521
311.000000	75.002	6.8185
315.000000	75.000	6.8008
320.000000	74.996	6.7817
325.000000	74.994	6.7876
330.000000	75.001	6.8282
335.000000	75.017	6.9181
340.000000	75.036	7.0244
345.000000	75.050	7.0854
350.000000	75.057	7.0911
355.000000	75.065	7.0875
360.000000	75.071	7.1593
365.000000	75.073	7.3147
370.000000	75.074	7.4854
375.000000	75.083	7.6039
382.000000	75.115	7.6697
387.000000	75.151	7.6959
395.000000	75.199	7.7080
400.000000	75.211	7.6691
406.000000	75.215	7.5983
412.000000	75.210	7.5670
418.000000	75.204	7.6223
425.000000	75.219	7.7064
431.000000	75.247	7.7594
437.000000	75.266	7.8623
444.000000	75.272	8.0410
450.000000	75.273	8.1779
455.000000	75.272	8.2489
462.000000	75.274	8.3256
468.000000	75.288	8.4510
475.000000	75.312	8.6589
482.000000	75.334	8.8320
487.000000	75.351	8.9006
494.000000	75.389	8.9519
500.000000	75.432	9.0198
508.000000	75.488	9.2031
515.000000	75.530	9.4351
522.000000	75.567	9.6681
530.000000	75.617	9.8535
538.000000	75.672	9.9429
545.000000	75.717	10.0106
552.000000	75.754	10.1084
560.000000	75.791	10.1953
570.000000	75.842	10.1650
580.000000	75.907	10.0878
590.000000	75.979	10.0392
600.000000	76.051	9.9546
608.000000	76.104	9.8693
615.000000	76.144	9.7802
622.000000	76.177	9.6613
630.000000	76.203	9.4894
640.000000	76.222	9.2651
650.000000	76.232	9.1135
660.000000	76.245	9.0522
670.000000	76.263	9.0426
680.000000	76.280	9.0957
690.000000	76.298	9.1967
700.000000	76.323	9.3080
710.000000	76.355	9.4055
720.000000	76.390	9.4712
730.000000	76.427	9.5128
740.000000	76.462	9.5334
750.000000	76.486	9.5098
762.000000	76.487	9.4753
775.000000	76.460	9.6968
788.000000	76.459	10.4238
800.000000	76.528	11.3107
812.000000	76.658	12.0049
825.000000	76.831	12.3900
838.000000	77.013	12.4441
850.000000	77.176	12.2454
862.000000	77.328	11.8408
875.000000	77.470	11.1951
885.000000	77.559	10.5791
900.000000	77.650	9.5970
912.000000	77.690	8.8623
925.000000	77.708	8.1313
938.000000	77.716	7.4285
950.000000	77.723	6.7637
962.000000	77.729	6.0531
975.000000	77.718	5.2047
988.000000	77.661	4.2966
1000.000000	77.545	3.5475
1015.000000	77.310	3.1613
1030.000000	77.043	3.8868
1044.000000	76.895	5.4612
1060.000000	76.929	7.3468
1075.000000	77.086	8.3868
1090.000000	77.250	8.6292
1106.000000	77.371	8.3796
1120.000000	77.424	8.0288
1138.000000	77.437	7.6584
1150.000000	77.429	7.5371
1172.000000	77.416	7.5597
1180.000000	77.415	7.6187
1206.000000	77.436	7.8594
1220.000000	77.461	7.9406
1241.000000	77.490	7.9138
1250.000000	77.492	7.8489
1265.000000	77.468	7.7407
1280.000000	77.413	7.7742
1315.000000	77.290	8.7964
1320.000000	77.282	9.0126
1340.000000	77.283	9.9086
1360.000000	77.328	10.7372
1380.000000	77.396	11.3977
1400.000000	77.466	11.8884
1430.000000	77.553	12.5021
1450.000000	77.606	12.9097
1475.000000	77.668	13.4415
1500.000000	77.732	14.0239
1525.000000	77.807	14.6069
1550.000000	77.885	15.1556
1575.000000	77.963	15.6886
1600.000000	78.038	16.2146
1625.000000	78.110	16.7626
1650.000000	78.189	17.3617
1675.000000	78.282	17.9403
1700.000000	78.377	18.4263
1725.000000	78.461	18.8801
1750.000000	78.536	19.3998
1775.000000	78.614	20.0510
1800.000000	78.712	20.8170
1825.000000	78.843	21.5583
1850.000000	78.999	22.1222
1875.000000	79.162	22.4388
1900.000000	79.312	22.4935
1925.000000	79.428	22.3271
1950.000000	79.494	22.0449
1975.000000	79.504	21.7634
2000.000000	79.444	21.6385
2030.000000	79.274	22.1311
2060.000000	79.053	23.9904
2090.000000	78.952	27.4210
2120.000000	79.134	31.5619
2140.000000	79.408	34.0642
2180.000000	80.118	37.5062
2200.000000	80.479	38.4819
2240.000000	81.151	39.5055
2270.000000	81.611	39.7704
2300.000000	82.033	39.7791
2330.000000	82.423	39.6693
2360.000000	82.796	39.5305
2400.000000	83.286	39.3003
2430.000000	83.654	39.0338
2470.000000	84.138	38.5044
2500.000000	84.491	37.9814
2540.000000	84.950	37.1631
2580.000000	85.404	36.2729
2620.000000	85.866	35.3030
2650.000000	86.222	34.4816
2690.000000	86.706	33.1984
2720.000000	87.076	32.0361
2760.000000	87.562	30.1337
2800.000000	88.018	27.8193
2850.000000	88.525	24.5094
2900.000000	88.968	20.8942
2950.000000	89.354	17.0372
3000.000000	89.684	12.9204
3040.000000	89.898	9.4185
3070.000000	90.022	6.6936
3110.000000	90.136	2.9921
3150.000000	90.189	-0.7083
3200.000000	90.177	-5.2247
3250.000000	90.088	-9.5315
3300.000000	89.931	-13.5642
3350.000000	89.717	-17.2859
3400.000000	89.453	-20.6718
3450.000000	89.146	-23.6832
3500.000000	88.806	-26.2797
3550.000000	88.449	-28.4576
3600.000000	88.088	-30.2548
3650.000000	87.734	-31.7302
3700.000000	87.395	-32.9722
3750.000000	87.074	-34.0980
3820.000000	86.630	-35.6526
3870.000000	86.287	-36.7245
3950.000000	85.649	-37.9491
4000.000000	85.200	-38.1072
4060.000000	84.651	-37.4535
4120.000000	84.157	-35.9252
4180.000000	83.783	-33.8831
4250.000000	83.514	-31.5050
4310.000000	83.377	-29.8256
4370.000000	83.268	-28.4862
4440.000000	83.139	-27.1605
4500.000000	83.016	-26.0619
4550.000000	82.907	-25.0901
4620.000000	82.750	-23.5817
4680.000000	82.610	-22.0820
4750.000000	82.448	-19.9058
4820.000000	82.326	-17.0841
4870.000000	82.298	-14.6309
4940.000000	82.414	-10.6846
5000.000000	82.710	-7.1681
5080.000000	83.377	-3.2036
5150.000000	84.106	-1.0754
5220.000000	84.863	-0.3557
5300.000000	85.692	-0.9885
5380.000000	86.484	-2.6862
5450.000000	87.195	-4.9098
5520.000000	87.923	-8.2703
5600.000000	88.646	-14.2928
5700.000000	89.100	-24.8700
5800.000000	88.914	-36.2952
5900.000000	88.191	-45.9137
6000.000000	87.129	-52.6504
6080.000000	86.160	-55.9987
6150.000000	85.293	-57.6732
6220.000000	84.447	-58.4139
6300.000000	83.537	-58.3870
6400.000000	82.509	-57.4152
6500.000000	81.615	-55.7783
6600.000000	80.846	-53.8120
6700.000000	80.170	-51.6927
6800.000000	79.551	-49.3682
6900.000000	78.988	-46.7227
7000.000000	78.505	-43.8379
7100.000000	78.107	-40.9315
7200.000000	77.776	-38.1256
7300.000000	77.487	-35.3824
7400.000000	77.235	-32.5920
7500.000000	77.030	-29.6696
7620.000000	76.888	-25.9563
7750.000000	76.945	-21.9169
7880.000000	77.283	-18.6699
8000.000000	77.790	-17.3495
8120.000000	78.348	-18.3606
8250.000000	78.832	-22.4590
8380.000000	79.021	-29.4462
8500.000000	78.823	-37.6416
8620.000000	78.211	-46.3477
8750.000000	77.036	-54.5709
8850.000000	75.749	-58.4393
9000.000000	73.245	-57.4526
9120.000000	70.939	-50.0109
9250.000000	68.597	-37.1838
9380.000000	67.050	-23.1984
9500.000000	66.533	-11.9901
9620.000000	66.590	-3.2882
9750.000000	66.918	3.4558
9880.000000	67.297	7.7235
10000.000000	67.579	9.7091
10150.000000	67.736	10.0232
10300.000000	67.591	8.6899
10440.000000	67.128	6.9359
10600.000000	66.176	5.8629
10750.000000	64.902	7.2449
10900.000000	63.334	12.0905
11060.000000	61.490	21.9750
11200.000000	59.984	35.0133
11380.000000	59.032	56.4608
11500.000000	59.470	70.6949
11720.000000	61.462	85.4670
11800.000000	62.123	84.9736
12060.000000	63.369	56.9071
12200.000000	64.105	23.7440
12410.000000	66.986	-44.6268
12500.000000	68.673	-75.2933
12650.000000	71.393	-120.1172
12800.000000	73.632	-154.8014
13150.000000	76.450	149.4153
13200.000000	76.593	143.2544
13400.000000	76.671	122.6984
13600.000000	76.230	108.4689
13800.000000	75.619	99.2716
14000.000000	75.123	93.1688
14300.000000	74.929	84.9352
14500.000000	75.023	76.8606
14750.000000	74.840	62.6382
15000.000000	73.790	48.1696
15250.000000	71.666	42.0415
15500.000000	68.922	47.6653
15750.000000	66.833	58.3024
16000.000000	66.398	66.5957
16250.000000	67.174	70.1580
16500.000000	68.430	68.4214
16750.000000	69.680	60.4559
17000.000000	70.513	45.9023
17250.000000	70.627	26.8074
17500.000000	69.936	7.3962
17750.000000	68.603	-8.8384
18000.000000	66.972	-21.3339
18250.000000	65.480	-31.9927
18500.000000	64.507	-43.8086
18750.000000	64.107	-59.7936
19000.000000	63.927	-81.6772
19250.000000	63.532	-108.5354
19500.000000	62.718	-136.5865
19750.000000	61.617	-160.3799
