* Measurement data measured by REW V5.20.13
* Source: Frequency Response Averaged data
* Format: Averaged data produced from the rms magnitudes of Satyr2 ZMF Sol Lambskin R, Satyr2 ZMF Sol Lambskin R, Satyr2 ZMF Sol Lambskin R, Satyr2 ZMF Sol Lambskin R
* Dated: Jun 12, 2024 4:04:15 PM
* REW Settings:
*  C-weighting compensation: Off
*  Target level: 75.0 dB
* Note: Averaged data produced from the rms magnitudes of Satyr2 ZMF Sol Lambskin R, Satyr2 ZMF Sol Lambskin R, Satyr2 ZMF Sol Lambskin R, Satyr2 ZMF Sol Lambskin R
* Measurement: RMS Average Sol R
* Smoothing: 1/12 octave
* Frequency Step: 1/48 octave
* Start Frequency: 20.000 Hz
*
* Freq(Hz)	SPL(dB)
20.000000	68.830
20.299999	69.023
20.600000	69.213
20.900000	69.400
21.200001	69.584
21.400000	69.704
21.799999	69.939
22.000000	70.054
22.400000	70.277
22.700001	70.439
23.000000	70.599
23.299999	70.757
23.600000	70.912
24.000000	71.115
24.299999	71.264
24.700001	71.456
25.000000	71.596
25.400000	71.778
25.799999	71.956
26.200001	72.130
26.500000	72.259
26.900000	72.428
27.200001	72.552
27.600000	72.713
28.000000	72.870
28.500000	73.059
29.000000	73.242
29.500000	73.419
30.000000	73.591
30.400000	73.725
30.700001	73.823
31.100000	73.950
31.500000	74.073
32.000000	74.222
32.500000	74.364
33.000000	74.501
33.500000	74.634
34.000000	74.762
34.500000	74.885
35.000000	75.003
35.500000	75.115
36.000000	75.223
36.500000	75.327
37.000000	75.427
37.500000	75.523
38.200001	75.650
38.700001	75.736
39.500000	75.864
40.000000	75.940
40.599998	76.026
41.200001	76.108
41.799999	76.185
42.500000	76.268
43.099998	76.335
43.700001	76.397
44.400002	76.465
45.000000	76.518
45.500000	76.559
46.200001	76.613
46.799999	76.657
47.500000	76.706
48.200001	76.754
48.700001	76.788
49.400002	76.836
50.000000	76.879
50.799999	76.940
51.500000	76.997
52.200001	77.059
53.000000	77.136
53.799999	77.219
54.500000	77.295
55.200001	77.373
56.000000	77.463
57.000000	77.572
58.000000	77.675
59.000000	77.770
60.000000	77.860
60.799999	77.928
61.500000	77.986
62.200001	78.041
63.000000	78.102
64.000000	78.173
65.000000	78.240
66.000000	78.303
67.000000	78.364
68.000000	78.422
69.000000	78.479
70.000000	78.535
71.000000	78.589
72.000000	78.642
73.000000	78.691
74.000000	78.737
75.000000	78.780
76.199997	78.827
77.500000	78.874
78.800003	78.915
80.000000	78.949
81.199997	78.980
82.500000	79.008
83.800003	79.033
85.000000	79.053
86.199997	79.069
87.500000	79.084
88.500000	79.093
90.000000	79.104
91.199997	79.111
92.500000	79.117
93.800003	79.121
95.000000	79.123
96.199997	79.124
97.500000	79.125
98.800003	79.123
100.000000	79.121
101.500000	79.115
103.000000	79.106
104.400002	79.094
106.000000	79.076
107.500000	79.052
109.000000	79.023
110.599998	78.986
112.000000	78.947
113.800003	78.891
115.000000	78.849
117.199997	78.768
118.000000	78.737
120.599998	78.640
122.000000	78.591
124.099998	78.531
125.000000	78.511
126.500000	78.487
128.000000	78.478
131.500000	78.506
132.000000	78.514
134.000000	78.554
136.000000	78.593
138.000000	78.621
140.000000	78.632
143.000000	78.609
145.000000	78.573
147.500000	78.510
150.000000	78.440
152.500000	78.369
155.000000	78.303
157.500000	78.245
160.000000	78.194
162.500000	78.145
165.000000	78.097
167.500000	78.045
170.000000	77.990
172.500000	77.931
175.000000	77.868
177.500000	77.803
180.000000	77.739
182.500000	77.677
185.000000	77.618
187.500000	77.563
190.000000	77.509
192.500000	77.457
195.000000	77.404
197.500000	77.349
200.000000	77.289
203.000000	77.211
206.000000	77.125
209.000000	77.032
212.000000	76.933
214.000000	76.864
218.000000	76.727
220.000000	76.659
224.000000	76.529
227.000000	76.438
230.000000	76.354
233.000000	76.280
236.000000	76.216
240.000000	76.148
243.000000	76.110
247.000000	76.074
250.000000	76.057
254.000000	76.044
258.000000	76.041
262.000000	76.043
265.000000	76.045
269.000000	76.046
272.000000	76.042
276.000000	76.030
280.000000	76.007
285.000000	75.964
290.000000	75.907
295.000000	75.840
300.000000	75.767
304.000000	75.709
307.000000	75.668
311.000000	75.619
315.000000	75.579
320.000000	75.544
325.000000	75.526
330.000000	75.521
335.000000	75.526
340.000000	75.533
345.000000	75.537
350.000000	75.534
355.000000	75.520
360.000000	75.492
365.000000	75.453
370.000000	75.402
375.000000	75.342
382.000000	75.249
387.000000	75.180
395.000000	75.073
400.000000	75.012
406.000000	74.948
412.000000	74.892
418.000000	74.842
425.000000	74.789
431.000000	74.748
437.000000	74.711
444.000000	74.673
450.000000	74.648
455.000000	74.632
462.000000	74.618
468.000000	74.617
475.000000	74.628
482.000000	74.657
487.000000	74.688
494.000000	74.747
500.000000	74.811
508.000000	74.911
515.000000	75.008
522.000000	75.105
530.000000	75.211
538.000000	75.304
545.000000	75.374
552.000000	75.434
560.000000	75.491
570.000000	75.550
580.000000	75.598
590.000000	75.639
600.000000	75.673
608.000000	75.695
615.000000	75.709
622.000000	75.719
630.000000	75.725
640.000000	75.724
650.000000	75.715
660.000000	75.701
670.000000	75.682
680.000000	75.665
690.000000	75.659
700.000000	75.673
710.000000	75.715
720.000000	75.788
730.000000	75.888
740.000000	76.008
750.000000	76.141
762.000000	76.303
775.000000	76.467
788.000000	76.605
800.000000	76.705
812.000000	76.780
825.000000	76.843
838.000000	76.904
850.000000	76.976
862.000000	77.071
875.000000	77.200
885.000000	77.310
900.000000	77.473
912.000000	77.590
925.000000	77.697
938.000000	77.781
950.000000	77.840
962.000000	77.878
975.000000	77.897
988.000000	77.892
1000.000000	77.869
1015.000000	77.823
1030.000000	77.770
1044.000000	77.721
1060.000000	77.667
1075.000000	77.614
1090.000000	77.552
1106.000000	77.473
1120.000000	77.390
1138.000000	77.263
1150.000000	77.165
1172.000000	76.963
1180.000000	76.884
1206.000000	76.614
1220.000000	76.463
1241.000000	76.225
1250.000000	76.119
1265.000000	75.939
1280.000000	75.759
1315.000000	75.372
1320.000000	75.323
1340.000000	75.151
1360.000000	75.019
1380.000000	74.923
1400.000000	74.852
1430.000000	74.765
1450.000000	74.710
1475.000000	74.642
1500.000000	74.568
1525.000000	74.480
1550.000000	74.374
1575.000000	74.262
1600.000000	74.162
1625.000000	74.091
1650.000000	74.060
1675.000000	74.067
1700.000000	74.107
1725.000000	74.172
1750.000000	74.258
1775.000000	74.364
1800.000000	74.494
1825.000000	74.654
1850.000000	74.849
1875.000000	75.081
1900.000000	75.344
1925.000000	75.628
1950.000000	75.924
1975.000000	76.227
2000.000000	76.540
2030.000000	76.928
2060.000000	77.324
2090.000000	77.717
2120.000000	78.097
2140.000000	78.342
2180.000000	78.808
2200.000000	79.032
2240.000000	79.467
2270.000000	79.783
2300.000000	80.083
2330.000000	80.357
2360.000000	80.600
2400.000000	80.879
2430.000000	81.063
2470.000000	81.288
2500.000000	81.443
2540.000000	81.632
2580.000000	81.799
2620.000000	81.941
2650.000000	82.031
2690.000000	82.130
2720.000000	82.191
2760.000000	82.259
2800.000000	82.313
2850.000000	82.369
2900.000000	82.414
2950.000000	82.457
3000.000000	82.516
3040.000000	82.584
3070.000000	82.650
3110.000000	82.749
3150.000000	82.854
3200.000000	82.975
3250.000000	83.075
3300.000000	83.144
3350.000000	83.174
3400.000000	83.160
3450.000000	83.099
3500.000000	82.995
3550.000000	82.845
3600.000000	82.644
3650.000000	82.384
3700.000000	82.057
3750.000000	81.664
3820.000000	81.028
3870.000000	80.539
3950.000000	79.754
4000.000000	79.288
4060.000000	78.770
4120.000000	78.303
4180.000000	77.887
4250.000000	77.459
4310.000000	77.138
4370.000000	76.854
4440.000000	76.568
4500.000000	76.358
4550.000000	76.209
4620.000000	76.044
4680.000000	75.955
4750.000000	75.932
4820.000000	76.019
4870.000000	76.155
4940.000000	76.452
5000.000000	76.799
5080.000000	77.372
5150.000000	77.949
5220.000000	78.561
5300.000000	79.257
5380.000000	79.892
5450.000000	80.357
5520.000000	80.706
5600.000000	80.932
5700.000000	80.930
5800.000000	80.608
5900.000000	79.999
6000.000000	79.168
6080.000000	78.405
6150.000000	77.710
6220.000000	77.021
6300.000000	76.274
6400.000000	75.426
6500.000000	74.675
6600.000000	73.995
6700.000000	73.350
6800.000000	72.712
6900.000000	72.077
7000.000000	71.469
7100.000000	70.934
7200.000000	70.522
7300.000000	70.255
7400.000000	70.117
7500.000000	70.072
7620.000000	70.087
7750.000000	70.157
7880.000000	70.289
8000.000000	70.479
8120.000000	70.714
8250.000000	70.937
8380.000000	71.019
8500.000000	70.888
8620.000000	70.526
8750.000000	69.885
8850.000000	69.251
9000.000000	68.163
9120.000000	67.263
9250.000000	66.343
9380.000000	65.532
9500.000000	64.877
9620.000000	64.275
9750.000000	63.624
9880.000000	62.930
10000.000000	62.246
10150.000000	61.380
10300.000000	60.614
10440.000000	60.121
10600.000000	59.929
10750.000000	60.112
10900.000000	60.564
11060.000000	61.217
11200.000000	61.825
11380.000000	62.539
11500.000000	62.962
11720.000000	63.801
11800.000000	64.195
12060.000000	65.912
12200.000000	66.980
12410.000000	68.455
12500.000000	68.985
12650.000000	69.696
12800.000000	70.189
13150.000000	70.589
13200.000000	70.576
13400.000000	70.397
13600.000000	70.044
13800.000000	69.539
14000.000000	68.894
14300.000000	67.719
14500.000000	66.857
14750.000000	65.744
15000.000000	64.589
15250.000000	63.357
15500.000000	62.052
15750.000000	60.837
16000.000000	60.109
16250.000000	60.252
16500.000000	61.149
16750.000000	62.311
17000.000000	63.335
17250.000000	64.013
17500.000000	64.263
17750.000000	64.084
18000.000000	63.529
18250.000000	62.706
18500.000000	61.766
18750.000000	60.889
19000.000000	60.220
19250.000000	59.799
19500.000000	59.566
19750.000000	59.441
