* Measurement data measured by REW V5.31.1
* Source: Frequency response averaged data
* Format: Averaged data produced from the rms magnitudes of L Satyr 2 Soulwit Pads, L Satyr 2 Soulwit Pads, L Satyr 2 Soulwit Pads
* Dated: Dec 20, 2024 9:34:57 AM
* REW Settings:
*  C-weighting compensation: Off
*  Target level: 75.0 dB
* Note: Averaged data produced from the rms magnitudes of L Satyr 2 Soulwit Pads, L Satyr 2 Soulwit Pads, L Satyr 2 Soulwit Pads
* Measurement: RMS Average 1
* Smoothing: 1/12 octave
* Frequency Step: 1/48 octave
* Start Frequency: 20.000 Hz
*
* Freq(Hz)	SPL(dB)
20.000000	76.136
20.299999	76.343
20.600000	76.546
20.900000	76.742
21.200001	76.931
21.400000	77.052
21.799999	77.283
22.000000	77.394
22.400000	77.605
22.700001	77.756
23.000000	77.900
23.299999	78.038
23.600000	78.170
24.000000	78.339
24.299999	78.463
24.700001	78.624
25.000000	78.743
25.400000	78.900
25.799999	79.055
26.200001	79.209
26.500000	79.322
26.900000	79.471
27.200001	79.581
27.600000	79.724
28.000000	79.862
28.500000	80.027
29.000000	80.184
29.500000	80.331
30.000000	80.470
30.400000	80.576
30.700001	80.651
31.100000	80.749
31.500000	80.844
32.000000	80.958
32.500000	81.070
33.000000	81.178
33.500000	81.282
34.000000	81.381
34.500000	81.476
35.000000	81.567
35.500000	81.654
36.000000	81.740
36.500000	81.825
37.000000	81.909
37.500000	81.992
38.200001	82.107
38.700001	82.189
39.500000	82.314
40.000000	82.390
40.599998	82.475
41.200001	82.554
41.799999	82.628
42.500000	82.709
43.099998	82.775
43.700001	82.839
44.400002	82.911
45.000000	82.972
45.500000	83.020
46.200001	83.086
46.799999	83.140
47.500000	83.197
48.200001	83.250
48.700001	83.284
49.400002	83.329
50.000000	83.364
50.799999	83.408
51.500000	83.445
52.200001	83.479
53.000000	83.516
53.799999	83.552
54.500000	83.582
55.200001	83.612
56.000000	83.645
57.000000	83.685
58.000000	83.725
59.000000	83.766
60.000000	83.809
60.799999	83.844
61.500000	83.877
62.200001	83.910
63.000000	83.949
64.000000	83.999
65.000000	84.049
66.000000	84.099
67.000000	84.147
68.000000	84.192
69.000000	84.233
70.000000	84.270
71.000000	84.301
72.000000	84.327
73.000000	84.347
74.000000	84.363
75.000000	84.374
76.199997	84.385
77.500000	84.395
78.800003	84.406
80.000000	84.420
81.199997	84.437
82.500000	84.459
83.800003	84.486
85.000000	84.512
86.199997	84.538
87.500000	84.565
88.500000	84.584
90.000000	84.609
91.199997	84.626
92.500000	84.640
93.800003	84.650
95.000000	84.657
96.199997	84.661
97.500000	84.662
98.800003	84.662
100.000000	84.659
101.500000	84.653
103.000000	84.644
104.400002	84.635
106.000000	84.624
107.500000	84.613
109.000000	84.602
110.599998	84.593
112.000000	84.585
113.800003	84.577
115.000000	84.573
117.199997	84.565
118.000000	84.562
120.599998	84.551
122.000000	84.543
124.099998	84.528
125.000000	84.521
126.500000	84.508
128.000000	84.495
131.500000	84.463
132.000000	84.459
134.000000	84.443
136.000000	84.429
138.000000	84.417
140.000000	84.407
143.000000	84.394
145.000000	84.385
147.500000	84.373
150.000000	84.358
152.500000	84.340
155.000000	84.320
157.500000	84.298
160.000000	84.275
162.500000	84.252
165.000000	84.232
167.500000	84.215
170.000000	84.203
172.500000	84.198
175.000000	84.197
177.500000	84.203
180.000000	84.212
182.500000	84.224
185.000000	84.237
187.500000	84.249
190.000000	84.258
192.500000	84.264
195.000000	84.264
197.500000	84.260
200.000000	84.252
203.000000	84.238
206.000000	84.221
209.000000	84.201
212.000000	84.182
214.000000	84.169
218.000000	84.144
220.000000	84.132
224.000000	84.111
227.000000	84.096
230.000000	84.083
233.000000	84.072
236.000000	84.061
240.000000	84.050
243.000000	84.044
247.000000	84.039
250.000000	84.038
254.000000	84.039
258.000000	84.043
262.000000	84.050
265.000000	84.057
269.000000	84.067
272.000000	84.075
276.000000	84.088
280.000000	84.101
285.000000	84.118
290.000000	84.136
295.000000	84.155
300.000000	84.174
304.000000	84.190
307.000000	84.202
311.000000	84.219
315.000000	84.235
320.000000	84.255
325.000000	84.275
330.000000	84.294
335.000000	84.311
340.000000	84.328
345.000000	84.344
350.000000	84.358
355.000000	84.372
360.000000	84.386
365.000000	84.399
370.000000	84.411
375.000000	84.423
382.000000	84.438
387.000000	84.447
395.000000	84.459
400.000000	84.466
406.000000	84.472
412.000000	84.476
418.000000	84.480
425.000000	84.483
431.000000	84.485
437.000000	84.487
444.000000	84.487
450.000000	84.487
455.000000	84.485
462.000000	84.482
468.000000	84.478
475.000000	84.472
482.000000	84.464
487.000000	84.459
494.000000	84.450
500.000000	84.443
508.000000	84.433
515.000000	84.424
522.000000	84.415
530.000000	84.406
538.000000	84.398
545.000000	84.393
552.000000	84.388
560.000000	84.384
570.000000	84.381
580.000000	84.379
590.000000	84.380
600.000000	84.382
608.000000	84.385
615.000000	84.389
622.000000	84.394
630.000000	84.402
640.000000	84.413
650.000000	84.426
660.000000	84.441
670.000000	84.457
680.000000	84.474
690.000000	84.490
700.000000	84.504
710.000000	84.516
720.000000	84.524
730.000000	84.527
740.000000	84.526
750.000000	84.520
762.000000	84.508
775.000000	84.490
788.000000	84.472
800.000000	84.458
812.000000	84.449
825.000000	84.445
838.000000	84.447
850.000000	84.453
862.000000	84.461
875.000000	84.472
885.000000	84.483
900.000000	84.504
912.000000	84.527
925.000000	84.560
938.000000	84.601
950.000000	84.645
962.000000	84.693
975.000000	84.748
988.000000	84.803
1000.000000	84.851
1015.000000	84.905
1030.000000	84.946
1044.000000	84.972
1060.000000	84.984
1075.000000	84.978
1090.000000	84.957
1106.000000	84.923
1120.000000	84.885
1138.000000	84.831
1150.000000	84.791
1172.000000	84.711
1180.000000	84.680
1206.000000	84.572
1220.000000	84.513
1241.000000	84.428
1250.000000	84.393
1265.000000	84.336
1280.000000	84.282
1315.000000	84.147
1320.000000	84.125
1340.000000	84.026
1360.000000	83.912
1380.000000	83.784
1400.000000	83.650
1430.000000	83.454
1450.000000	83.334
1475.000000	83.198
1500.000000	83.076
1525.000000	82.972
1550.000000	82.896
1575.000000	82.855
1600.000000	82.854
1625.000000	82.892
1650.000000	82.958
1675.000000	83.045
1700.000000	83.143
1725.000000	83.244
1750.000000	83.340
1775.000000	83.429
1800.000000	83.511
1825.000000	83.596
1850.000000	83.693
1875.000000	83.810
1900.000000	83.954
1925.000000	84.124
1950.000000	84.317
1975.000000	84.531
2000.000000	84.763
2030.000000	85.055
2060.000000	85.353
2090.000000	85.648
2120.000000	85.939
2140.000000	86.132
2180.000000	86.524
2200.000000	86.726
2240.000000	87.140
2270.000000	87.458
2300.000000	87.780
2330.000000	88.101
2360.000000	88.419
2400.000000	88.830
2430.000000	89.124
2470.000000	89.493
2500.000000	89.752
2540.000000	90.075
2580.000000	90.377
2620.000000	90.660
2650.000000	90.861
2690.000000	91.116
2720.000000	91.297
2760.000000	91.527
2800.000000	91.748
2850.000000	92.014
2900.000000	92.275
2950.000000	92.531
3000.000000	92.782
3040.000000	92.977
3070.000000	93.119
3110.000000	93.304
3150.000000	93.484
3200.000000	93.701
3250.000000	93.908
3300.000000	94.100
3350.000000	94.269
3400.000000	94.407
3450.000000	94.505
3500.000000	94.554
3550.000000	94.549
3600.000000	94.486
3650.000000	94.364
3700.000000	94.183
3750.000000	93.944
3820.000000	93.523
3870.000000	93.168
3950.000000	92.532
4000.000000	92.109
4060.000000	91.591
4120.000000	91.080
4180.000000	90.590
4250.000000	90.060
4310.000000	89.650
4370.000000	89.286
4440.000000	88.923
4500.000000	88.666
4550.000000	88.489
4620.000000	88.299
4680.000000	88.187
4750.000000	88.114
4820.000000	88.100
4870.000000	88.124
4940.000000	88.202
5000.000000	88.305
5080.000000	88.485
5150.000000	88.669
5220.000000	88.862
5300.000000	89.069
5380.000000	89.234
5450.000000	89.322
5520.000000	89.338
5600.000000	89.255
5700.000000	88.983
5800.000000	88.525
5900.000000	87.903
6000.000000	87.153
6080.000000	86.494
6150.000000	85.895
6220.000000	85.292
6300.000000	84.615
6400.000000	83.808
6500.000000	83.065
6600.000000	82.399
6700.000000	81.820
6800.000000	81.344
6900.000000	80.981
7000.000000	80.739
7100.000000	80.613
7200.000000	80.588
7300.000000	80.638
7400.000000	80.738
7500.000000	80.865
7620.000000	81.028
7750.000000	81.204
7880.000000	81.369
8000.000000	81.511
8120.000000	81.643
8250.000000	81.772
8380.000000	81.875
8500.000000	81.930
8620.000000	81.923
8750.000000	81.821
8850.000000	81.660
9000.000000	81.270
9120.000000	80.828
9250.000000	80.231
9380.000000	79.533
9500.000000	78.824
9620.000000	78.079
9750.000000	77.257
9880.000000	76.441
10000.000000	75.710
10150.000000	74.850
10300.000000	74.090
10440.000000	73.534
10600.000000	73.169
10750.000000	73.154
10900.000000	73.456
11060.000000	74.056
11200.000000	74.731
11380.000000	75.703
11500.000000	76.375
11720.000000	77.596
11800.000000	78.026
12060.000000	79.333
12200.000000	79.962
12410.000000	80.778
12500.000000	81.072
12650.000000	81.476
12800.000000	81.759
13150.000000	81.886
13200.000000	81.840
13400.000000	81.495
13600.000000	80.910
13800.000000	80.124
14000.000000	79.196
14300.000000	77.695
14500.000000	76.737
14750.000000	75.708
15000.000000	74.939
15250.000000	74.460
15500.000000	74.281
15750.000000	74.378
16000.000000	74.678
16250.000000	75.067
16500.000000	75.432
16750.000000	75.678
17000.000000	75.733
17250.000000	75.551
17500.000000	75.113
17750.000000	74.426
18000.000000	73.526
18250.000000	72.474
18500.000000	71.355
18750.000000	70.282
19000.000000	69.369
19250.000000	68.698
19500.000000	68.280
19750.000000	68.062
20000.000000	67.975
