* Measurement data measured by REW V5.20.13
* Source: Headset (USB-C to 3.5mm Headphone Jack Adapter), MICROPHONE (Master Volume), R, volume: 0.360. Timing signal peak level -25.0 dBFS, measurement signal peak level -23.9 dBFS
* Format: 256k Log Swept Sine, 1 sweep at -12.0 dBFS using an acoustic timing reference
* Dated: Jun 9, 2024 6:10:46 PM
* REW Settings:
*  C-weighting compensation: Off
*  Target level: 75.0 dB
* Note: Delay -0.0318 ms (-11 mm, -0.43 in) using estimated IR delay relative to Acoustic reference played from  R with no timing offset Clock adjustment: 1.8 ppm
* Measurement: Prototype ZMF Perf Suede
* Smoothing: 1/12 octave
* Frequency Step: 1/48 octave
* Start Frequency: 20.000 Hz
*
* Freq(Hz)	SPL(dB)	Phase(degrees)
20.000000	62.639	-24.3003
20.299999	62.964	-25.0646
20.600000	63.244	-25.8365
20.900000	63.486	-26.5273
21.200001	63.700	-27.0697
21.400000	63.836	-27.3262
21.799999	64.113	-27.6091
22.000000	64.265	-27.6765
22.400000	64.611	-27.8222
22.700001	64.902	-28.1171
23.000000	65.203	-28.7180
23.299999	65.487	-29.6569
23.600000	65.739	-30.8746
24.000000	66.007	-32.7412
24.299999	66.159	-34.1364
24.700001	66.314	-35.7962
25.000000	66.415	-36.8187
25.400000	66.549	-37.8672
25.799999	66.706	-38.5899
26.200001	66.906	-39.0605
26.500000	67.094	-39.3310
26.900000	67.394	-39.7324
27.200001	67.645	-40.1830
27.600000	67.983	-41.0822
28.000000	68.288	-42.2780
28.500000	68.595	-43.8573
29.000000	68.848	-45.0800
29.500000	69.117	-45.8348
30.000000	69.442	-46.4644
30.400000	69.726	-47.1796
30.700001	69.932	-47.9120
31.100000	70.175	-49.0984
31.500000	70.373	-50.3844
32.000000	70.567	-51.8969
32.500000	70.734	-53.1712
33.000000	70.903	-54.2457
33.500000	71.084	-55.2326
34.000000	71.274	-56.2145
34.500000	71.470	-57.2110
35.000000	71.668	-58.2106
35.500000	71.872	-59.2075
36.000000	72.079	-60.2148
36.500000	72.288	-61.2505
37.000000	72.493	-62.3167
37.500000	72.688	-63.3926
38.200001	72.949	-64.8663
38.700001	73.129	-65.8925
39.500000	73.408	-67.5558
40.000000	73.572	-68.6374
40.599998	73.756	-69.9706
41.200001	73.924	-71.3080
41.799999	74.082	-72.6138
42.500000	74.267	-74.0805
43.099998	74.434	-75.3209
43.700001	74.610	-76.5893
44.400002	74.820	-78.1156
45.000000	75.004	-79.4567
45.500000	75.156	-80.6148
46.200001	75.354	-82.3159
46.799999	75.495	-83.7739
47.500000	75.629	-85.2808
48.200001	75.763	-86.5121
48.700001	75.873	-87.3172
49.400002	76.035	-88.5183
50.000000	76.164	-89.6519
50.799999	76.309	-91.1875
51.500000	76.426	-92.4702
52.200001	76.546	-93.7366
53.000000	76.686	-95.2330
53.799999	76.822	-96.7847
54.500000	76.935	-98.1751
55.200001	77.037	-99.5751
56.000000	77.139	-101.1217
57.000000	77.256	-102.9143
58.000000	77.369	-104.6436
59.000000	77.464	-106.3626
60.000000	77.541	-107.9818
60.799999	77.604	-109.2130
61.500000	77.663	-110.3062
62.200001	77.721	-111.4423
63.000000	77.779	-112.7687
64.000000	77.839	-114.3968
65.000000	77.892	-115.9420
66.000000	77.943	-117.4160
67.000000	77.991	-118.8565
68.000000	78.030	-120.2647
69.000000	78.063	-121.6340
70.000000	78.090	-122.9814
71.000000	78.111	-124.3074
72.000000	78.127	-125.5995
73.000000	78.140	-126.8606
74.000000	78.149	-128.0854
75.000000	78.153	-129.2621
76.199997	78.155	-130.6255
77.500000	78.148	-132.0598
78.800003	78.132	-133.4334
80.000000	78.113	-134.6410
81.199997	78.093	-135.7880
82.500000	78.074	-136.9691
83.800003	78.054	-138.0912
85.000000	78.035	-139.0619
86.199997	78.016	-139.9746
87.500000	77.998	-140.9190
88.500000	77.984	-141.6238
90.000000	77.962	-142.6478
91.199997	77.944	-143.4374
92.500000	77.923	-144.2675
93.800003	77.901	-145.0648
95.000000	77.885	-145.7690
96.199997	77.877	-146.4763
97.500000	77.875	-147.2859
98.800003	77.871	-148.1180
100.000000	77.863	-148.8624
101.500000	77.850	-149.7451
103.000000	77.834	-150.5995
104.400002	77.817	-151.3929
106.000000	77.796	-152.3150
107.500000	77.777	-153.2091
109.000000	77.754	-154.1319
110.599998	77.718	-155.1073
112.000000	77.679	-155.9123
113.800003	77.636	-156.9183
115.000000	77.617	-157.6109
117.199997	77.595	-158.9465
118.000000	77.584	-159.4373
120.599998	77.502	-160.7708
122.000000	77.436	-161.2127
124.099998	77.347	-161.7674
125.000000	77.313	-162.0633
126.500000	77.257	-162.6848
128.000000	77.196	-163.4414
131.500000	77.012	-165.3159
132.000000	76.981	-165.5562
134.000000	76.849	-166.4007
136.000000	76.714	-167.0809
138.000000	76.578	-167.6388
140.000000	76.443	-168.1182
143.000000	76.232	-168.7142
145.000000	76.076	-168.9927
147.500000	75.864	-169.1483
150.000000	75.659	-169.1085
152.500000	75.502	-169.1088
155.000000	75.364	-169.2228
157.500000	75.220	-169.1086
160.000000	75.079	-168.6701
162.500000	74.945	-167.9964
165.000000	74.829	-167.1481
167.500000	74.741	-166.1889
170.000000	74.687	-165.2287
172.500000	74.661	-164.3869
175.000000	74.654	-163.6650
177.500000	74.667	-163.0047
180.000000	74.702	-162.4250
182.500000	74.750	-161.9660
185.000000	74.801	-161.6248
187.500000	74.849	-161.3637
190.000000	74.888	-161.1265
192.500000	74.918	-160.8591
195.000000	74.947	-160.5429
197.500000	74.987	-160.2013
200.000000	75.042	-159.8759
203.000000	75.128	-159.5773
206.000000	75.225	-159.4363
209.000000	75.323	-159.4460
212.000000	75.413	-159.5550
214.000000	75.464	-159.6686
218.000000	75.550	-160.0294
220.000000	75.584	-160.2817
224.000000	75.639	-160.8340
227.000000	75.670	-161.2160
230.000000	75.697	-161.5540
233.000000	75.722	-161.8600
236.000000	75.745	-162.1579
240.000000	75.769	-162.6158
243.000000	75.781	-163.0351
247.000000	75.789	-163.6289
250.000000	75.789	-164.0522
254.000000	75.782	-164.5942
258.000000	75.764	-165.1547
262.000000	75.734	-165.7543
265.000000	75.701	-166.2173
269.000000	75.645	-166.8213
272.000000	75.592	-167.2518
276.000000	75.504	-167.7938
280.000000	75.391	-168.2856
285.000000	75.215	-168.7277
290.000000	75.012	-168.8054
295.000000	74.802	-168.4069
300.000000	74.619	-167.5571
304.000000	74.515	-166.6621
307.000000	74.470	-165.9439
311.000000	74.452	-165.0236
315.000000	74.469	-164.2388
320.000000	74.511	-163.5342
325.000000	74.551	-163.1476
330.000000	74.569	-163.0118
335.000000	74.557	-163.0029
340.000000	74.511	-162.9744
345.000000	74.437	-162.7912
350.000000	74.354	-162.3757
355.000000	74.280	-161.7216
360.000000	74.229	-160.9020
365.000000	74.204	-160.0387
370.000000	74.197	-159.2169
375.000000	74.201	-158.4598
382.000000	74.217	-157.4769
387.000000	74.235	-156.7896
395.000000	74.284	-155.6697
400.000000	74.333	-154.9684
406.000000	74.410	-154.1708
412.000000	74.505	-153.4744
418.000000	74.610	-152.9196
425.000000	74.734	-152.4833
431.000000	74.829	-152.2852
437.000000	74.905	-152.1916
444.000000	74.965	-152.0943
450.000000	74.995	-151.9312
455.000000	75.012	-151.7059
462.000000	75.035	-151.2595
468.000000	75.065	-150.8036
475.000000	75.120	-150.2764
482.000000	75.190	-149.8281
487.000000	75.243	-149.5712
494.000000	75.312	-149.2777
500.000000	75.366	-149.0461
508.000000	75.432	-148.7131
515.000000	75.491	-148.3910
522.000000	75.555	-148.0611
530.000000	75.633	-147.7107
538.000000	75.710	-147.3929
545.000000	75.774	-147.1095
552.000000	75.840	-146.8054
560.000000	75.922	-146.4590
570.000000	76.030	-146.0799
580.000000	76.136	-145.7521
590.000000	76.240	-145.4260
600.000000	76.351	-145.0985
608.000000	76.450	-144.8763
615.000000	76.540	-144.7380
622.000000	76.630	-144.6571
630.000000	76.728	-144.6227
640.000000	76.841	-144.6328
650.000000	76.949	-144.6713
660.000000	77.051	-144.7429
670.000000	77.145	-144.8606
680.000000	77.227	-145.0019
690.000000	77.296	-145.1238
700.000000	77.357	-145.2016
710.000000	77.416	-145.2243
720.000000	77.476	-145.1890
730.000000	77.542	-145.1042
740.000000	77.618	-144.9873
750.000000	77.706	-144.8757
762.000000	77.826	-144.8300
775.000000	77.960	-144.9690
788.000000	78.081	-145.2851
800.000000	78.174	-145.6656
812.000000	78.252	-146.0627
825.000000	78.324	-146.4664
838.000000	78.386	-146.8221
850.000000	78.436	-147.0708
862.000000	78.493	-147.2584
875.000000	78.567	-147.4998
885.000000	78.627	-147.7688
900.000000	78.705	-148.3191
912.000000	78.746	-148.8287
925.000000	78.766	-149.3426
938.000000	78.767	-149.7024
950.000000	78.771	-149.8622
962.000000	78.796	-149.9291
975.000000	78.846	-150.0174
988.000000	78.911	-150.2141
1000.000000	78.974	-150.5217
1015.000000	79.043	-151.0342
1030.000000	79.104	-151.6188
1044.000000	79.161	-152.2614
1060.000000	79.216	-153.2328
1075.000000	79.228	-154.3604
1090.000000	79.183	-155.5202
1106.000000	79.083	-156.5735
1120.000000	78.972	-157.2721
1138.000000	78.814	-157.9196
1150.000000	78.700	-158.2058
1172.000000	78.498	-158.3922
1180.000000	78.433	-158.3967
1206.000000	78.233	-158.4143
1220.000000	78.117	-158.3226
1241.000000	77.963	-157.9845
1250.000000	77.909	-157.8623
1265.000000	77.816	-157.7701
1280.000000	77.696	-157.7110
1315.000000	77.350	-156.7831
1320.000000	77.306	-156.5558
1340.000000	77.165	-155.6153
1360.000000	77.049	-154.8116
1380.000000	76.914	-154.0421
1400.000000	76.765	-153.0818
1430.000000	76.550	-151.2772
1450.000000	76.418	-149.8048
1475.000000	76.298	-147.6813
1500.000000	76.240	-145.4670
1525.000000	76.231	-143.2564
1550.000000	76.272	-141.1246
1575.000000	76.349	-139.1917
1600.000000	76.436	-137.4873
1625.000000	76.517	-135.8868
1650.000000	76.595	-134.3190
1675.000000	76.667	-132.7040
1700.000000	76.753	-130.9409
1725.000000	76.876	-129.1255
1750.000000	77.031	-127.3758
1775.000000	77.210	-125.7344
1800.000000	77.405	-124.2071
1825.000000	77.618	-122.7630
1850.000000	77.856	-121.5014
1875.000000	78.091	-120.5335
1900.000000	78.299	-119.7351
1925.000000	78.490	-118.9221
1950.000000	78.685	-118.0954
1975.000000	78.877	-117.3501
2000.000000	79.053	-116.6242
2030.000000	79.262	-115.6167
2060.000000	79.490	-114.5491
2090.000000	79.732	-113.4525
2120.000000	80.005	-112.3100
2140.000000	80.207	-111.5989
2180.000000	80.642	-110.4550
2200.000000	80.864	-110.0364
2240.000000	81.306	-109.4883
2270.000000	81.617	-109.2859
2300.000000	81.911	-109.0993
2330.000000	82.210	-108.8607
2360.000000	82.523	-108.6557
2400.000000	82.957	-108.4930
2430.000000	83.297	-108.4989
2470.000000	83.764	-108.7195
2500.000000	84.127	-109.0739
2540.000000	84.614	-109.9428
2580.000000	85.070	-111.2694
2620.000000	85.485	-112.8923
2650.000000	85.770	-114.2468
2690.000000	86.116	-116.2100
2720.000000	86.346	-117.7756
2760.000000	86.611	-119.8875
2800.000000	86.848	-121.9173
2850.000000	87.139	-124.4190
2900.000000	87.415	-127.1484
2950.000000	87.638	-130.1503
3000.000000	87.793	-133.2186
3040.000000	87.880	-135.6243
3070.000000	87.928	-137.4065
3110.000000	87.966	-139.7382
3150.000000	87.977	-141.9698
3200.000000	87.968	-144.5997
3250.000000	87.943	-147.1086
3300.000000	87.907	-149.5395
3350.000000	87.862	-151.9343
3400.000000	87.806	-154.3472
3450.000000	87.737	-156.8202
3500.000000	87.648	-159.4061
3550.000000	87.526	-162.1615
3600.000000	87.346	-165.0539
3650.000000	87.086	-167.9247
3700.000000	86.738	-170.5230
3750.000000	86.318	-172.6170
3820.000000	85.664	-174.5330
3870.000000	85.190	-175.2222
3950.000000	84.469	-175.3924
4000.000000	84.057	-175.0684
4060.000000	83.599	-174.3548
4120.000000	83.178	-173.2971
4180.000000	82.801	-171.8802
4250.000000	82.435	-169.8584
4310.000000	82.197	-167.9359
4370.000000	82.030	-165.9637
4440.000000	81.916	-163.7489
4500.000000	81.870	-161.9855
4550.000000	81.857	-160.5985
4620.000000	81.872	-158.7192
4680.000000	81.921	-157.1283
4750.000000	82.034	-155.3105
4820.000000	82.214	-153.6004
4870.000000	82.387	-152.4938
4940.000000	82.695	-151.1849
5000.000000	83.019	-150.3673
5080.000000	83.529	-149.8676
5150.000000	84.036	-150.1408
5220.000000	84.578	-151.2416
5300.000000	85.206	-153.7314
5380.000000	85.779	-157.7651
5450.000000	86.167	-162.6272
5520.000000	86.388	-168.5477
5600.000000	86.381	-176.0431
5700.000000	85.966	174.7609
5800.000000	85.156	167.1230
5900.000000	84.079	161.7988
6000.000000	82.875	158.8151
6080.000000	81.900	157.8828
6150.000000	81.074	157.9349
6220.000000	80.297	158.6395
6300.000000	79.482	160.0661
6400.000000	78.590	162.5284
6500.000000	77.845	165.4932
6600.000000	77.250	168.7118
6700.000000	76.802	171.9129
6800.000000	76.476	174.8241
6900.000000	76.223	177.2892
7000.000000	75.985	179.4218
7100.000000	75.742	-178.4759
7200.000000	75.513	-176.1831
7300.000000	75.333	-173.6680
7400.000000	75.236	-171.0367
7500.000000	75.245	-168.4964
7620.000000	75.398	-165.9308
7750.000000	75.703	-164.2153
7880.000000	76.073	-164.0459
8000.000000	76.378	-165.4421
8120.000000	76.566	-168.2178
8250.000000	76.563	-172.3591
8380.000000	76.295	-176.9690
8500.000000	75.791	179.2014
8620.000000	75.056	176.7339
8750.000000	74.114	176.4050
8850.000000	73.429	177.7705
9000.000000	72.748	-178.8263
9120.000000	72.611	-176.5624
9250.000000	72.748	-176.2098
9380.000000	72.907	-178.8092
9500.000000	72.849	176.5312
9620.000000	72.474	170.8369
9750.000000	71.672	165.0884
9880.000000	70.484	161.2709
10000.000000	69.102	160.4640
10150.000000	67.103	164.1215
10300.000000	65.035	173.4878
10440.000000	63.517	-173.4851
10600.000000	63.084	-157.0042
10750.000000	63.990	-144.2170
10900.000000	65.379	-136.7824
11060.000000	66.660	-135.3585
11200.000000	67.298	-138.1260
11380.000000	67.335	-142.2283
11500.000000	67.037	-142.1352
11720.000000	67.062	-133.8122
11800.000000	67.564	-129.4507
12060.000000	70.420	-119.8088
12200.000000	72.051	-120.0207
12410.000000	74.138	-126.8426
12500.000000	74.887	-131.4887
12650.000000	75.956	-140.7732
12800.000000	76.812	-151.5205
13150.000000	77.976	179.2795
13200.000000	78.045	174.7750
13400.000000	78.087	156.3022
13600.000000	77.775	137.4214
13800.000000	77.141	118.3572
14000.000000	76.206	99.1626
14300.000000	74.264	70.2355
14500.000000	72.674	50.5398
14750.000000	70.606	23.4447
15000.000000	68.996	-10.6108
15250.000000	68.370	-54.9097
15500.000000	68.513	-106.5428
15750.000000	68.811	-157.5105
16000.000000	68.965	158.7081
16250.000000	69.043	123.3866
16500.000000	69.212	93.9655
16750.000000	69.505	66.8160
17000.000000	69.744	39.1957
17250.000000	69.678	10.4820
17500.000000	69.171	-17.9244
17750.000000	68.298	-44.3502
18000.000000	67.309	-68.5035
18250.000000	66.520	-91.8100
18500.000000	66.107	-116.5221
18750.000000	65.990	-144.2983
19000.000000	66.012	-175.5684
19250.000000	66.104	150.0780
19500.000000	66.195	114.4355
19750.000000	66.206	82.6135
