* Measurement data measured by REW V5.20.13
* Source: EXCL: Headset (USB-C to 3.5mm Headphone Jack Adapter), MICROPHONE (Master Volume), 0, volume: 0.260. Timing signal peak level -28.1 dBFS, measurement signal peak level -27.9 dBFS
* Format: 256k Log Swept Sine, 1 sweep at -20.0 dBFS using an acoustic timing reference
* Dated: May 28, 2023 7:24:02 PM
* REW Settings:
*  C-weighting compensation: Off
*  Target level: 75.0 dB
* Note: Satyr 1
* Measurement: Satyr 1
* Smoothing: 1/12 octave
* Frequency Step: 1/48 octave
* Start Frequency: 20.000 Hz
*
* Freq(Hz)	SPL(dB)	Phase(degrees)
20.000000	63.194	161.5392
20.299999	63.432	160.4089
20.600000	63.696	159.2831
20.900000	63.978	158.0417
21.200001	64.259	156.5981
21.400000	64.432	155.5289
21.799999	64.733	153.2484
22.000000	64.858	152.1125
22.400000	65.067	150.0166
22.700001	65.209	148.6606
23.000000	65.357	147.4608
23.299999	65.521	146.3077
23.600000	65.694	145.0960
24.000000	65.923	143.2731
24.299999	66.073	141.7484
24.700001	66.229	139.6203
25.000000	66.315	138.0715
25.400000	66.404	136.1896
25.799999	66.491	134.5449
26.200001	66.594	133.0642
26.500000	66.688	131.9983
26.900000	66.835	130.5790
27.200001	66.960	129.4885
27.600000	67.145	127.9603
28.000000	67.346	126.2778
28.500000	67.589	123.8732
29.000000	67.774	121.2563
29.500000	67.880	118.8448
30.000000	67.956	117.0961
30.400000	68.056	116.1925
30.700001	68.178	115.6490
31.100000	68.393	114.7955
31.500000	68.631	113.5656
32.000000	68.885	111.4660
32.500000	69.042	109.1101
33.000000	69.119	106.9621
33.500000	69.163	105.1655
34.000000	69.207	103.5735
34.500000	69.250	102.0117
35.000000	69.279	100.4601
35.500000	69.296	98.9871
36.000000	69.317	97.6071
36.500000	69.352	96.2437
37.000000	69.397	94.8084
37.500000	69.438	93.3006
38.200001	69.475	91.2741
38.700001	69.502	90.0528
39.500000	69.607	88.4722
40.000000	69.723	87.4930
40.599998	69.881	86.1362
41.200001	70.026	84.6238
41.799999	70.145	83.1000
42.500000	70.256	81.3878
43.099998	70.323	79.9874
43.700001	70.363	78.7115
44.400002	70.393	77.4219
45.000000	70.419	76.4198
45.500000	70.444	75.5982
46.200001	70.486	74.4223
46.799999	70.534	73.3278
47.500000	70.596	71.8573
48.200001	70.648	70.2201
48.700001	70.681	69.0262
49.400002	70.732	67.3645
50.000000	70.785	65.9181
50.799999	70.858	63.9441
51.500000	70.912	62.2319
52.200001	70.950	60.6144
53.000000	70.971	58.9993
53.799999	70.981	57.6904
54.500000	70.988	56.7302
55.200001	70.988	55.8789
56.000000	70.973	55.0381
57.000000	70.946	54.2136
58.000000	70.952	53.4717
59.000000	70.995	52.2567
60.000000	70.983	50.3971
60.799999	70.904	48.8777
61.500000	70.813	47.7412
62.200001	70.729	46.7636
63.000000	70.651	45.7489
64.000000	70.577	44.5487
65.000000	70.515	43.4141
66.000000	70.454	42.4054
67.000000	70.396	41.5627
68.000000	70.346	40.8766
69.000000	70.305	40.3056
70.000000	70.274	39.7954
71.000000	70.247	39.3250
72.000000	70.226	38.8985
73.000000	70.215	38.4854
74.000000	70.214	38.0247
75.000000	70.216	37.4877
76.199997	70.220	36.7873
77.500000	70.234	36.0408
78.800003	70.270	35.3083
80.000000	70.316	34.6007
81.199997	70.358	33.8799
82.500000	70.390	33.0890
83.800003	70.393	32.2690
85.000000	70.367	31.5433
86.199997	70.330	30.8760
87.500000	70.298	30.1645
88.500000	70.284	29.5963
90.000000	70.278	28.7069
91.199997	70.279	27.9957
92.500000	70.278	27.2670
93.800003	70.271	26.5901
95.000000	70.256	26.0077
96.199997	70.235	25.4615
97.500000	70.210	24.8924
98.800003	70.185	24.3248
100.000000	70.162	23.8007
101.500000	70.136	23.1428
103.000000	70.115	22.4649
104.400002	70.100	21.8079
106.000000	70.085	21.0364
107.500000	70.065	20.3217
109.000000	70.031	19.6641
110.599998	69.975	19.0649
112.000000	69.917	18.6093
113.800003	69.839	18.0624
115.000000	69.792	17.7248
117.199997	69.733	17.1615
118.000000	69.718	16.9564
120.599998	69.655	16.2631
122.000000	69.599	15.9354
124.099998	69.502	15.5546
125.000000	69.465	15.4169
126.500000	69.412	15.2053
128.000000	69.371	15.0133
131.500000	69.294	14.6842
132.000000	69.284	14.6543
134.000000	69.255	14.5234
136.000000	69.238	14.2987
138.000000	69.221	14.0179
140.000000	69.203	13.7444
143.000000	69.171	13.2894
145.000000	69.142	12.9420
147.500000	69.102	12.5643
150.000000	69.067	12.3043
152.500000	69.038	12.1034
155.000000	69.010	11.8612
157.500000	68.975	11.5244
160.000000	68.926	11.1390
162.500000	68.872	10.7713
165.000000	68.817	10.4294
167.500000	68.758	10.1321
170.000000	68.692	9.9082
172.500000	68.623	9.7436
175.000000	68.558	9.5792
177.500000	68.498	9.3888
180.000000	68.444	9.2081
182.500000	68.392	9.0734
185.000000	68.338	8.9850
187.500000	68.278	8.9240
190.000000	68.219	8.8767
192.500000	68.164	8.8471
195.000000	68.112	8.8369
197.500000	68.061	8.8337
200.000000	68.010	8.8322
203.000000	67.951	8.8550
206.000000	67.892	8.9320
209.000000	67.838	9.0584
212.000000	67.787	9.2197
214.000000	67.754	9.3346
218.000000	67.684	9.5348
220.000000	67.650	9.6188
224.000000	67.587	9.7930
227.000000	67.543	9.9570
230.000000	67.504	10.1666
233.000000	67.478	10.4359
236.000000	67.462	10.7607
240.000000	67.430	11.2026
243.000000	67.384	11.4811
247.000000	67.317	11.7866
250.000000	67.283	11.9796
254.000000	67.257	12.2031
258.000000	67.232	12.4506
262.000000	67.204	12.7515
265.000000	67.184	12.9800
269.000000	67.161	13.2693
272.000000	67.145	13.4863
276.000000	67.122	13.7847
280.000000	67.099	14.0953
285.000000	67.078	14.5052
290.000000	67.060	14.9200
295.000000	67.045	15.3312
300.000000	67.033	15.7253
304.000000	67.026	16.0234
307.000000	67.021	16.2450
311.000000	67.015	16.5404
315.000000	67.011	16.8292
320.000000	67.007	17.1710
325.000000	67.000	17.4889
330.000000	66.992	17.8062
335.000000	66.986	18.1476
340.000000	66.985	18.5060
345.000000	66.988	18.8555
350.000000	66.992	19.1765
355.000000	66.993	19.4663
360.000000	66.993	19.7180
365.000000	66.995	19.9236
370.000000	66.998	20.1192
375.000000	66.999	20.3402
382.000000	66.995	20.6573
387.000000	66.989	20.8559
395.000000	66.974	21.1497
400.000000	66.962	21.3427
406.000000	66.945	21.5927
412.000000	66.926	21.8537
418.000000	66.904	22.1279
425.000000	66.877	22.4819
431.000000	66.853	22.8147
437.000000	66.830	23.1777
444.000000	66.807	23.6356
450.000000	66.790	24.0385
455.000000	66.776	24.3745
462.000000	66.756	24.8376
468.000000	66.738	25.2185
475.000000	66.716	25.6536
482.000000	66.691	26.1121
487.000000	66.673	26.4626
494.000000	66.650	26.9729
500.000000	66.633	27.4153
508.000000	66.610	28.0118
515.000000	66.592	28.5462
522.000000	66.578	29.0894
530.000000	66.569	29.7102
538.000000	66.568	30.3144
545.000000	66.569	30.8328
552.000000	66.569	31.3444
560.000000	66.568	31.9104
570.000000	66.562	32.5963
580.000000	66.552	33.2838
590.000000	66.538	33.9960
600.000000	66.521	34.7563
608.000000	66.508	35.4059
615.000000	66.498	35.9986
622.000000	66.490	36.6061
630.000000	66.487	37.3083
640.000000	66.495	38.1931
650.000000	66.512	39.0863
660.000000	66.538	39.9784
670.000000	66.579	40.8228
680.000000	66.637	41.4968
690.000000	66.693	41.8422
700.000000	66.695	41.8488
710.000000	66.585	41.9400
720.000000	66.386	42.9457
730.000000	66.246	45.1334
740.000000	66.282	47.6511
750.000000	66.448	49.6360
762.000000	66.690	51.1241
775.000000	66.929	52.0334
788.000000	67.133	52.5828
800.000000	67.296	52.8875
812.000000	67.437	52.9928
825.000000	67.552	52.8768
838.000000	67.609	52.6140
850.000000	67.597	52.4409
862.000000	67.533	52.5762
875.000000	67.449	53.2369
885.000000	67.409	54.0515
900.000000	67.420	55.4439
912.000000	67.482	56.4601
925.000000	67.578	57.3312
938.000000	67.679	57.9492
950.000000	67.762	58.3292
962.000000	67.826	58.5847
975.000000	67.870	58.8071
988.000000	67.892	59.0507
1000.000000	67.898	59.3356
1015.000000	67.895	59.7823
1030.000000	67.888	60.2942
1044.000000	67.882	60.7975
1060.000000	67.877	61.3551
1075.000000	67.864	61.8618
1090.000000	67.838	62.4023
1106.000000	67.799	63.0627
1120.000000	67.763	63.7230
1138.000000	67.727	64.6096
1150.000000	67.705	65.1594
1172.000000	67.638	66.0824
1180.000000	67.598	66.4438
1206.000000	67.425	68.1306
1220.000000	67.346	69.4100
1241.000000	67.283	71.4980
1250.000000	67.271	72.3939
1265.000000	67.265	73.8701
1280.000000	67.272	75.3149
1315.000000	67.327	78.5465
1320.000000	67.338	79.0031
1340.000000	67.393	80.8447
1360.000000	67.471	82.6375
1380.000000	67.560	84.2902
1400.000000	67.644	85.8179
1430.000000	67.757	88.0001
1450.000000	67.827	89.4454
1475.000000	67.913	91.2694
1500.000000	68.000	93.1423
1525.000000	68.100	95.0794
1550.000000	68.217	97.0153
1575.000000	68.348	98.8911
1600.000000	68.488	100.6751
1625.000000	68.626	102.3433
1650.000000	68.754	103.9575
1675.000000	68.875	105.6096
1700.000000	69.001	107.3127
1725.000000	69.133	109.0171
1750.000000	69.268	110.7208
1775.000000	69.407	112.4801
1800.000000	69.567	114.3082
1825.000000	69.762	116.0960
1850.000000	69.985	117.6610
1875.000000	70.208	118.8779
1900.000000	70.397	119.7542
1925.000000	70.522	120.4408
1950.000000	70.567	121.2437
1975.000000	70.549	122.5714
2000.000000	70.536	124.6965
2030.000000	70.646	128.0469
2060.000000	70.933	131.4325
2090.000000	71.323	134.2193
2120.000000	71.734	136.3379
2140.000000	71.999	137.4732
2180.000000	72.497	139.3486
2200.000000	72.733	140.1671
2240.000000	73.182	141.6598
2270.000000	73.503	142.6896
2300.000000	73.815	143.6818
2330.000000	74.122	144.6725
2360.000000	74.433	145.6741
2400.000000	74.867	146.9962
2430.000000	75.209	147.9206
2470.000000	75.686	148.9727
2500.000000	76.055	149.5948
2540.000000	76.555	150.1524
2580.000000	77.050	150.3287
2620.000000	77.516	150.1423
2650.000000	77.841	149.8421
2690.000000	78.243	149.3372
2720.000000	78.528	148.9384
2760.000000	78.904	148.4343
2800.000000	79.300	147.9019
2850.000000	79.825	146.8222
2900.000000	80.320	144.9689
2950.000000	80.726	142.4857
3000.000000	81.031	139.6562
3040.000000	81.204	137.2762
3070.000000	81.292	135.4730
3110.000000	81.358	133.1044
3150.000000	81.370	130.8401
3200.000000	81.322	128.2303
3250.000000	81.219	125.8895
3300.000000	81.074	123.7838
3350.000000	80.886	121.8823
3400.000000	80.653	120.2220
3450.000000	80.378	118.8788
3500.000000	80.073	117.8984
3550.000000	79.751	117.2824
3600.000000	79.423	117.0059
3650.000000	79.095	117.0333
3700.000000	78.772	117.3428
3750.000000	78.461	117.9165
3820.000000	78.059	119.0581
3870.000000	77.801	120.0077
3950.000000	77.426	121.6201
4000.000000	77.207	122.6566
4060.000000	76.954	123.9082
4120.000000	76.706	125.1462
4180.000000	76.452	126.3668
4250.000000	76.132	127.8307
4310.000000	75.828	129.2533
4370.000000	75.510	130.9520
4440.000000	75.147	133.2454
4500.000000	74.849	135.3541
4550.000000	74.600	137.1867
4620.000000	74.234	139.9779
4680.000000	73.902	142.7617
4750.000000	73.522	146.6606
4820.000000	73.203	151.2518
4870.000000	73.042	154.8223
4940.000000	72.919	159.9838
5000.000000	72.899	164.4133
5080.000000	72.972	170.2939
5150.000000	73.134	175.5450
5220.000000	73.434	-178.9936
5300.000000	74.044	-172.6238
5380.000000	75.031	-166.6114
5450.000000	76.204	-162.4505
5520.000000	77.520	-160.5245
5600.000000	78.895	-162.4198
5700.000000	79.999	-170.6167
5800.000000	80.279	178.4919
5900.000000	79.897	168.8876
6000.000000	79.114	162.1014
6080.000000	78.350	158.5881
6150.000000	77.645	156.5820
6220.000000	76.937	155.2939
6300.000000	76.131	154.4643
6400.000000	75.119	154.2516
6500.000000	74.100	154.9617
6600.000000	73.107	156.4355
6700.000000	72.151	158.3722
6800.000000	71.205	160.7349
6900.000000	70.250	163.7344
7000.000000	69.314	167.4344
7100.000000	68.433	171.6631
7200.000000	67.623	176.1852
7300.000000	66.881	-179.2126
7400.000000	66.182	-174.6164
7500.000000	65.494	-169.9170
7620.000000	64.687	-163.9881
7750.000000	63.850	-157.3848
7880.000000	62.976	-150.3285
8000.000000	62.114	-142.2246
8120.000000	61.422	-132.1712
8250.000000	61.197	-120.7630
8380.000000	61.542	-110.9224
8500.000000	62.234	-104.2310
8620.000000	63.111	-101.0992
8750.000000	63.907	-103.3799
8850.000000	64.152	-109.1654
9000.000000	63.651	-121.6883
9120.000000	62.468	-132.3328
9250.000000	60.485	-143.8360
9380.000000	57.888	-158.2323
9500.000000	55.079	-178.8307
9620.000000	52.302	150.9308
9750.000000	50.848	113.0641
9880.000000	52.031	82.2360
10000.000000	54.063	65.1791
10150.000000	56.526	55.5514
10300.000000	58.662	52.0018
10440.000000	60.385	49.9267
10600.000000	62.066	46.5628
10750.000000	63.330	41.2089
10900.000000	64.187	33.0840
11060.000000	64.497	21.8578
11200.000000	64.156	11.6841
11380.000000	62.855	2.1696
11500.000000	61.505	0.2137
11720.000000	58.350	8.4911
11800.000000	57.155	15.0837
12060.000000	54.885	42.3286
12200.000000	55.412	54.7405
12410.000000	57.322	62.7651
12500.000000	58.144	61.4781
12650.000000	59.259	52.8300
12800.000000	59.928	36.5208
13150.000000	59.697	-21.4111
13200.000000	59.541	-30.5245
13400.000000	59.067	-65.2461
13600.000000	59.280	-94.1132
13800.000000	60.254	-115.1680
14000.000000	61.752	-129.1464
14300.000000	64.410	-143.6455
14500.000000	66.018	-154.1429
14750.000000	67.405	-171.3679
15000.000000	67.808	167.9806
15250.000000	67.083	148.8929
15500.000000	65.300	137.7043
15750.000000	62.807	137.5827
16000.000000	60.407	145.1101
16250.000000	59.065	153.6337
16500.000000	58.876	159.1053
16750.000000	59.230	160.1940
17000.000000	59.592	156.6544
17250.000000	59.627	149.2462
17500.000000	59.117	140.2035
17750.000000	57.978	133.0275
18000.000000	56.332	130.6733
18250.000000	54.614	133.1060
18500.000000	53.497	137.1765
18750.000000	53.359	138.9847
19000.000000	53.868	135.8305
19250.000000	54.445	126.8814
19500.000000	54.709	113.7402
19750.000000	54.593	100.5075
