* Measurement data measured by REW V5.31.1
* Source: Frequency response averaged data
* Format: Averaged data produced from the rms magnitudes of R Satyr2 Soulwit pads, R Satyr2 Soulwit pads, R Satyr2 Soulwit pads
* Dated: Dec 20, 2024 9:57:25 AM
* REW Settings:
*  C-weighting compensation: Off
*  Target level: 75.0 dB
* Note: Averaged data produced from the rms magnitudes of R Satyr2 Soulwit pads, R Satyr2 Soulwit pads, R Satyr2 Soulwit pads
* Measurement: RMS Average 1
* Smoothing: 1/12 octave
* Frequency Step: 1/48 octave
* Start Frequency: 20.000 Hz
*
* Freq(Hz)	SPL(dB)
20.000000	76.611
20.299999	76.831
20.600000	77.044
20.900000	77.254
21.200001	77.461
21.400000	77.597
21.799999	77.865
22.000000	77.997
22.400000	78.255
22.700001	78.443
23.000000	78.626
23.299999	78.805
23.600000	78.980
24.000000	79.206
24.299999	79.370
24.700001	79.583
25.000000	79.738
25.400000	79.941
25.799999	80.140
26.200001	80.336
26.500000	80.481
26.900000	80.671
27.200001	80.812
27.600000	80.994
28.000000	81.172
28.500000	81.388
29.000000	81.596
29.500000	81.798
30.000000	81.994
30.400000	82.147
30.700001	82.259
31.100000	82.404
31.500000	82.546
32.000000	82.715
32.500000	82.877
33.000000	83.031
33.500000	83.178
34.000000	83.320
34.500000	83.456
35.000000	83.587
35.500000	83.714
36.000000	83.836
36.500000	83.953
37.000000	84.067
37.500000	84.178
38.200001	84.329
38.700001	84.434
39.500000	84.598
40.000000	84.697
40.599998	84.813
41.200001	84.924
41.799999	85.032
42.500000	85.154
43.099998	85.255
43.700001	85.354
44.400002	85.466
45.000000	85.557
45.500000	85.631
46.200001	85.730
46.799999	85.809
47.500000	85.894
48.200001	85.972
48.700001	86.024
49.400002	86.091
50.000000	86.146
50.799999	86.216
51.500000	86.274
52.200001	86.330
53.000000	86.391
53.799999	86.449
54.500000	86.496
55.200001	86.542
56.000000	86.591
57.000000	86.647
58.000000	86.698
59.000000	86.744
60.000000	86.785
60.799999	86.815
61.500000	86.838
62.200001	86.860
63.000000	86.882
64.000000	86.908
65.000000	86.931
66.000000	86.954
67.000000	86.974
68.000000	86.993
69.000000	87.008
70.000000	87.020
71.000000	87.029
72.000000	87.034
73.000000	87.035
74.000000	87.033
75.000000	87.028
76.199997	87.018
77.500000	87.003
78.800003	86.981
80.000000	86.958
81.199997	86.930
82.500000	86.896
83.800003	86.859
85.000000	86.822
86.199997	86.782
87.500000	86.738
88.500000	86.703
90.000000	86.651
91.199997	86.609
92.500000	86.565
93.800003	86.523
95.000000	86.486
96.199997	86.452
97.500000	86.418
98.800003	86.387
100.000000	86.360
101.500000	86.329
103.000000	86.300
104.400002	86.275
106.000000	86.246
107.500000	86.219
109.000000	86.192
110.599998	86.162
112.000000	86.135
113.800003	86.100
115.000000	86.075
117.199997	86.027
118.000000	86.009
120.599998	85.948
122.000000	85.915
124.099998	85.865
125.000000	85.843
126.500000	85.808
128.000000	85.772
131.500000	85.686
132.000000	85.673
134.000000	85.618
136.000000	85.559
138.000000	85.494
140.000000	85.423
143.000000	85.306
145.000000	85.222
147.500000	85.112
150.000000	84.996
152.500000	84.876
155.000000	84.750
157.500000	84.619
160.000000	84.482
162.500000	84.337
165.000000	84.182
167.500000	84.017
170.000000	83.841
172.500000	83.653
175.000000	83.455
177.500000	83.247
180.000000	83.032
182.500000	82.815
185.000000	82.601
187.500000	82.398
190.000000	82.213
192.500000	82.052
195.000000	81.922
197.500000	81.825
200.000000	81.763
203.000000	81.731
206.000000	81.738
209.000000	81.775
212.000000	81.831
214.000000	81.876
218.000000	81.974
220.000000	82.024
224.000000	82.122
227.000000	82.193
230.000000	82.258
233.000000	82.318
236.000000	82.372
240.000000	82.434
243.000000	82.473
247.000000	82.513
250.000000	82.536
254.000000	82.557
258.000000	82.567
262.000000	82.567
265.000000	82.561
269.000000	82.545
272.000000	82.527
276.000000	82.496
280.000000	82.457
285.000000	82.397
290.000000	82.328
295.000000	82.251
300.000000	82.169
304.000000	82.100
307.000000	82.047
311.000000	81.975
315.000000	81.900
320.000000	81.800
325.000000	81.692
330.000000	81.570
335.000000	81.434
340.000000	81.281
345.000000	81.111
350.000000	80.926
355.000000	80.730
360.000000	80.529
365.000000	80.328
370.000000	80.138
375.000000	79.967
382.000000	79.779
387.000000	79.693
395.000000	79.648
400.000000	79.677
406.000000	79.759
412.000000	79.877
418.000000	80.013
425.000000	80.174
431.000000	80.300
437.000000	80.407
444.000000	80.503
450.000000	80.558
455.000000	80.586
462.000000	80.599
468.000000	80.591
475.000000	80.565
482.000000	80.529
487.000000	80.501
494.000000	80.465
500.000000	80.441
508.000000	80.423
515.000000	80.423
522.000000	80.437
530.000000	80.468
538.000000	80.515
545.000000	80.568
552.000000	80.632
560.000000	80.718
570.000000	80.846
580.000000	80.992
590.000000	81.146
600.000000	81.299
608.000000	81.416
615.000000	81.512
622.000000	81.600
630.000000	81.692
640.000000	81.796
650.000000	81.889
660.000000	81.975
670.000000	82.055
680.000000	82.129
690.000000	82.198
700.000000	82.261
710.000000	82.317
720.000000	82.365
730.000000	82.407
740.000000	82.443
750.000000	82.478
762.000000	82.519
775.000000	82.569
788.000000	82.627
800.000000	82.690
812.000000	82.764
825.000000	82.858
838.000000	82.969
850.000000	83.083
862.000000	83.207
875.000000	83.348
885.000000	83.458
900.000000	83.621
912.000000	83.747
925.000000	83.879
938.000000	84.005
950.000000	84.118
962.000000	84.230
975.000000	84.350
988.000000	84.470
1000.000000	84.581
1015.000000	84.718
1030.000000	84.853
1044.000000	84.972
1060.000000	85.100
1075.000000	85.208
1090.000000	85.306
1106.000000	85.397
1120.000000	85.467
1138.000000	85.542
1150.000000	85.583
1172.000000	85.637
1180.000000	85.650
1206.000000	85.665
1220.000000	85.658
1241.000000	85.633
1250.000000	85.617
1265.000000	85.587
1280.000000	85.552
1315.000000	85.456
1320.000000	85.440
1340.000000	85.375
1360.000000	85.305
1380.000000	85.233
1400.000000	85.164
1430.000000	85.070
1450.000000	85.016
1475.000000	84.955
1500.000000	84.899
1525.000000	84.849
1550.000000	84.808
1575.000000	84.778
1600.000000	84.756
1625.000000	84.739
1650.000000	84.727
1675.000000	84.724
1700.000000	84.736
1725.000000	84.768
1750.000000	84.822
1775.000000	84.896
1800.000000	84.986
1825.000000	85.091
1850.000000	85.210
1875.000000	85.343
1900.000000	85.487
1925.000000	85.639
1950.000000	85.799
1975.000000	85.968
2000.000000	86.147
2030.000000	86.377
2060.000000	86.622
2090.000000	86.876
2120.000000	87.140
2140.000000	87.321
2180.000000	87.699
2200.000000	87.894
2240.000000	88.293
2270.000000	88.592
2300.000000	88.888
2330.000000	89.178
2360.000000	89.461
2400.000000	89.823
2430.000000	90.082
2470.000000	90.406
2500.000000	90.633
2540.000000	90.910
2580.000000	91.161
2620.000000	91.387
2650.000000	91.541
2690.000000	91.727
2720.000000	91.852
2760.000000	91.999
2800.000000	92.126
2850.000000	92.260
2900.000000	92.378
2950.000000	92.489
3000.000000	92.602
3040.000000	92.701
3070.000000	92.779
3110.000000	92.889
3150.000000	93.004
3200.000000	93.148
3250.000000	93.285
3300.000000	93.406
3350.000000	93.505
3400.000000	93.573
3450.000000	93.605
3500.000000	93.595
3550.000000	93.538
3600.000000	93.434
3650.000000	93.280
3700.000000	93.079
3750.000000	92.833
3820.000000	92.419
3870.000000	92.080
3950.000000	91.477
4000.000000	91.073
4060.000000	90.575
4120.000000	90.074
4180.000000	89.587
4250.000000	89.053
4310.000000	88.636
4370.000000	88.264
4440.000000	87.891
4500.000000	87.627
4550.000000	87.446
4620.000000	87.252
4680.000000	87.139
4750.000000	87.070
4820.000000	87.064
4870.000000	87.096
4940.000000	87.185
5000.000000	87.298
5080.000000	87.489
5150.000000	87.679
5220.000000	87.875
5300.000000	88.085
5380.000000	88.253
5450.000000	88.343
5520.000000	88.363
5600.000000	88.281
5700.000000	88.000
5800.000000	87.510
5900.000000	86.820
6000.000000	85.957
6080.000000	85.172
6150.000000	84.441
6220.000000	83.690
6300.000000	82.838
6400.000000	81.824
6500.000000	80.915
6600.000000	80.149
6700.000000	79.554
6800.000000	79.153
6900.000000	78.954
7000.000000	78.936
7100.000000	79.049
7200.000000	79.231
7300.000000	79.424
7400.000000	79.592
7500.000000	79.723
7620.000000	79.840
7750.000000	79.955
7880.000000	80.109
8000.000000	80.317
8120.000000	80.594
8250.000000	80.947
8380.000000	81.310
8500.000000	81.603
8620.000000	81.809
8750.000000	81.885
8850.000000	81.817
9000.000000	81.483
9120.000000	81.013
9250.000000	80.309
9380.000000	79.427
9500.000000	78.477
9620.000000	77.422
9750.000000	76.182
9880.000000	74.868
10000.000000	73.612
10150.000000	72.036
10300.000000	70.553
10440.000000	69.398
10600.000000	68.553
10750.000000	68.343
10900.000000	68.667
11060.000000	69.464
11200.000000	70.419
11380.000000	71.862
11500.000000	72.894
11720.000000	74.811
11800.000000	75.491
12060.000000	77.562
12200.000000	78.559
12410.000000	79.865
12500.000000	80.348
12650.000000	81.043
12800.000000	81.591
13150.000000	82.245
13200.000000	82.264
13400.000000	82.160
13600.000000	81.784
13800.000000	81.179
14000.000000	80.413
14300.000000	79.142
14500.000000	78.321
14750.000000	77.386
15000.000000	76.502
15250.000000	75.572
15500.000000	74.545
15750.000000	73.488
16000.000000	72.592
16250.000000	72.086
16500.000000	72.050
16750.000000	72.329
17000.000000	72.678
17250.000000	72.904
17500.000000	72.903
17750.000000	72.638
18000.000000	72.119
18250.000000	71.393
18500.000000	70.535
18750.000000	69.648
19000.000000	68.844
19250.000000	68.217
19500.000000	67.803
19750.000000	67.577
20000.000000	67.483
