* Measurement data measured by REW V5.31.1
* Source: EXCL: Headset (USB-C to 3.5mm Headphone Jack Adapter), MICROPHONE (Master Volume), 0, volume: 0.420. Timing signal peak level -31.6 dBFS, measurement signal peak level -26.0 dBFS
* Format: 256k Log Swept Sine, 1 sweep at -12.0 dBFS using an acoustic timing reference
* Dated: Jul 12, 2024 9:03:13 PM
* REW Settings:
*  C-weighting compensation: Off
*  Target level: 75.0 dB
* Note: Delay -0.2055 ms (-71 mm, -2.78 in) using estimated IR delay relative to Acoustic reference played from  L with no timing offset Clock adjustment: 1.3 ppm
* Measurement: R Satyr 2 HD600 Pads
* Smoothing: 1/12 octave
* Frequency Step: 1/48 octave
* Start Frequency: 20.000 Hz
*
* Freq(Hz)	SPL(dB)	Phase(degrees)
20.000000	66.494	-54.9119
20.299999	66.842	-55.5747
20.600000	67.171	-56.6274
20.900000	67.449	-57.9445
21.200001	67.660	-59.3263
21.400000	67.765	-60.1813
21.799999	67.916	-61.5260
22.000000	67.978	-61.9708
22.400000	68.114	-62.4417
22.700001	68.246	-62.5571
23.000000	68.409	-62.6219
23.299999	68.596	-62.7506
23.600000	68.794	-63.0061
24.000000	69.055	-63.5567
24.299999	69.240	-64.0934
24.700001	69.468	-64.9066
25.000000	69.628	-65.5559
25.400000	69.833	-66.4548
25.799999	70.032	-67.4046
26.200001	70.227	-68.4359
26.500000	70.367	-69.2718
26.900000	70.537	-70.4432
27.200001	70.650	-71.3188
27.600000	70.785	-72.3978
28.000000	70.920	-73.3195
28.500000	71.121	-74.3256
29.000000	71.369	-75.4506
29.500000	71.618	-76.9346
30.000000	71.805	-78.6637
30.400000	71.895	-79.9496
30.700001	71.939	-80.7153
31.100000	71.998	-81.4106
31.500000	72.092	-81.8267
32.000000	72.275	-82.3041
32.500000	72.495	-83.0741
33.000000	72.694	-84.1749
33.500000	72.844	-85.3788
34.000000	72.958	-86.4549
34.500000	73.068	-87.3382
35.000000	73.194	-88.1215
35.500000	73.338	-88.9443
36.000000	73.487	-89.8926
36.500000	73.623	-90.9590
37.000000	73.737	-92.0606
37.500000	73.833	-93.1014
38.200001	73.963	-94.3957
38.700001	74.064	-95.2664
39.500000	74.228	-96.6920
40.000000	74.323	-97.5826
40.599998	74.433	-98.6037
41.200001	74.547	-99.5916
41.799999	74.662	-100.5964
42.500000	74.793	-101.8203
43.099998	74.895	-102.9197
43.700001	74.982	-104.0585
44.400002	75.055	-105.3571
45.000000	75.098	-106.3541
45.500000	75.133	-107.0979
46.200001	75.185	-108.0890
46.799999	75.222	-108.9276
47.500000	75.249	-109.8202
48.200001	75.270	-110.5298
48.700001	75.291	-110.9106
49.400002	75.342	-111.2860
50.000000	75.417	-111.5263
50.799999	75.562	-111.9347
51.500000	75.704	-112.4690
52.200001	75.840	-113.0722
53.000000	75.999	-113.7583
53.799999	76.164	-114.5468
54.500000	76.293	-115.3635
55.200001	76.396	-116.2199
56.000000	76.491	-117.1745
57.000000	76.588	-118.3357
58.000000	76.681	-119.5082
59.000000	76.786	-120.8516
60.000000	76.880	-122.5285
60.799999	76.923	-124.0093
61.500000	76.936	-125.2651
62.200001	76.934	-126.4126
63.000000	76.920	-127.5656
64.000000	76.888	-128.7714
65.000000	76.834	-129.6794
66.000000	76.767	-130.1928
67.000000	76.717	-130.3326
68.000000	76.710	-130.2287
69.000000	76.768	-130.1163
70.000000	76.883	-130.2911
71.000000	77.020	-130.8318
72.000000	77.155	-131.6393
73.000000	77.278	-132.5871
74.000000	77.385	-133.5593
75.000000	77.479	-134.4926
76.199997	77.578	-135.5601
77.500000	77.667	-136.6909
78.800003	77.739	-137.8006
80.000000	77.799	-138.8549
81.199997	77.850	-140.0066
82.500000	77.888	-141.3074
83.800003	77.912	-142.5941
85.000000	77.922	-143.7236
86.199997	77.926	-144.7599
87.500000	77.930	-145.7678
88.500000	77.937	-146.4812
90.000000	77.955	-147.5154
91.199997	77.972	-148.3444
92.500000	77.988	-149.2584
93.800003	77.998	-150.1786
95.000000	78.001	-151.0338
96.199997	77.998	-151.8972
97.500000	77.987	-152.8392
98.800003	77.968	-153.7746
100.000000	77.946	-154.6222
101.500000	77.916	-155.6485
103.000000	77.885	-156.6254
104.400002	77.857	-157.5121
106.000000	77.818	-158.5350
107.500000	77.767	-159.4621
109.000000	77.713	-160.3243
110.599998	77.657	-161.2347
112.000000	77.609	-162.0184
113.800003	77.552	-162.9954
115.000000	77.517	-163.6263
117.199997	77.456	-164.7457
118.000000	77.432	-165.1433
120.599998	77.338	-166.3691
122.000000	77.275	-166.9829
124.099998	77.166	-167.8672
125.000000	77.116	-168.2258
126.500000	77.036	-168.8141
128.000000	76.959	-169.4120
131.500000	76.766	-170.6769
132.000000	76.736	-170.8276
134.000000	76.611	-171.3540
136.000000	76.483	-171.7662
138.000000	76.366	-172.1015
140.000000	76.267	-172.4284
143.000000	76.138	-173.0048
145.000000	76.052	-173.4787
147.500000	75.929	-174.1188
150.000000	75.784	-174.6691
152.500000	75.627	-175.0730
155.000000	75.469	-175.3787
157.500000	75.323	-175.6140
160.000000	75.189	-175.7742
162.500000	75.063	-175.8803
165.000000	74.934	-175.9727
167.500000	74.804	-176.0615
170.000000	74.672	-176.1380
172.500000	74.533	-176.1803
175.000000	74.389	-176.1907
177.500000	74.247	-176.1894
180.000000	74.108	-176.1579
182.500000	73.966	-176.0529
185.000000	73.818	-175.8709
187.500000	73.668	-175.6318
190.000000	73.520	-175.3401
192.500000	73.377	-174.9871
195.000000	73.235	-174.5779
197.500000	73.093	-174.1257
200.000000	72.954	-173.6315
203.000000	72.796	-172.9550
206.000000	72.646	-172.1493
209.000000	72.506	-171.1950
212.000000	72.380	-170.0782
214.000000	72.305	-169.2595
218.000000	72.167	-167.6435
220.000000	72.102	-166.8939
224.000000	71.999	-165.4426
227.000000	71.953	-164.3719
230.000000	71.927	-163.3137
233.000000	71.917	-162.2821
236.000000	71.918	-161.3153
240.000000	71.935	-160.1635
243.000000	71.954	-159.3842
247.000000	71.982	-158.4273
250.000000	71.998	-157.7681
254.000000	72.010	-156.9659
258.000000	72.013	-156.2312
262.000000	72.010	-155.5384
265.000000	72.001	-155.0401
269.000000	71.985	-154.3705
272.000000	71.970	-153.8255
276.000000	71.951	-153.0202
280.000000	71.934	-152.1550
285.000000	71.918	-151.0511
290.000000	71.909	-149.9433
295.000000	71.912	-148.7931
300.000000	71.926	-147.6156
304.000000	71.946	-146.7028
307.000000	71.967	-146.0451
311.000000	72.002	-145.2025
315.000000	72.045	-144.3908
320.000000	72.108	-143.4191
325.000000	72.169	-142.5149
330.000000	72.220	-141.6792
335.000000	72.269	-140.9067
340.000000	72.321	-140.1787
345.000000	72.378	-139.4663
350.000000	72.436	-138.7613
355.000000	72.489	-138.0854
360.000000	72.537	-137.4232
365.000000	72.583	-136.7606
370.000000	72.628	-136.1224
375.000000	72.673	-135.5148
382.000000	72.739	-134.6711
387.000000	72.786	-134.0526
395.000000	72.862	-133.0827
400.000000	72.912	-132.5037
406.000000	72.974	-131.8474
412.000000	73.030	-131.2434
418.000000	73.084	-130.6938
425.000000	73.143	-130.0994
431.000000	73.191	-129.6184
437.000000	73.236	-129.1382
444.000000	73.283	-128.5783
450.000000	73.317	-128.1173
455.000000	73.340	-127.7432
462.000000	73.364	-127.2113
468.000000	73.379	-126.7276
475.000000	73.393	-126.1155
482.000000	73.406	-125.4713
487.000000	73.417	-125.0059
494.000000	73.433	-124.3501
500.000000	73.447	-123.7942
508.000000	73.463	-123.0707
515.000000	73.471	-122.4354
522.000000	73.472	-121.7678
530.000000	73.464	-120.9274
538.000000	73.455	-119.9767
545.000000	73.451	-119.0509
552.000000	73.458	-118.0585
560.000000	73.483	-116.8811
570.000000	73.541	-115.4210
580.000000	73.623	-114.0640
590.000000	73.716	-112.8541
600.000000	73.811	-111.7700
608.000000	73.884	-110.9755
615.000000	73.941	-110.3234
622.000000	73.993	-109.6907
630.000000	74.045	-108.9609
640.000000	74.104	-108.0013
650.000000	74.166	-106.9791
660.000000	74.239	-105.9424
670.000000	74.324	-104.9654
680.000000	74.413	-104.1077
690.000000	74.498	-103.3754
700.000000	74.567	-102.7158
710.000000	74.615	-102.0609
720.000000	74.647	-101.3530
730.000000	74.670	-100.5392
740.000000	74.694	-99.6031
750.000000	74.728	-98.5918
762.000000	74.783	-97.3564
775.000000	74.852	-96.0222
788.000000	74.932	-94.6844
800.000000	75.020	-93.4703
812.000000	75.120	-92.3400
825.000000	75.234	-91.2470
838.000000	75.341	-90.2931
850.000000	75.425	-89.4828
862.000000	75.492	-88.6532
875.000000	75.559	-87.6663
885.000000	75.616	-86.8573
900.000000	75.715	-85.6654
912.000000	75.801	-84.7991
925.000000	75.888	-83.9505
938.000000	75.964	-83.1516
950.000000	76.023	-82.4231
962.000000	76.075	-81.6854
975.000000	76.123	-80.8641
988.000000	76.162	-80.0011
1000.000000	76.194	-79.1421
1015.000000	76.234	-77.9530
1030.000000	76.288	-76.6308
1044.000000	76.363	-75.3442
1060.000000	76.481	-73.9597
1075.000000	76.607	-72.8684
1090.000000	76.728	-72.0086
1106.000000	76.833	-71.2436
1120.000000	76.902	-70.5855
1138.000000	76.974	-69.6863
1150.000000	77.018	-69.0573
1172.000000	77.096	-67.8703
1180.000000	77.125	-67.4356
1206.000000	77.220	-66.0606
1220.000000	77.271	-65.3932
1241.000000	77.328	-64.5590
1250.000000	77.339	-64.2235
1265.000000	77.339	-63.6152
1280.000000	77.327	-62.9139
1315.000000	77.290	-61.0320
1320.000000	77.283	-60.7495
1340.000000	77.245	-59.5647
1360.000000	77.193	-58.2476
1380.000000	77.136	-56.7821
1400.000000	77.087	-55.1131
1430.000000	77.065	-52.3790
1450.000000	77.080	-50.6418
1475.000000	77.100	-48.6812
1500.000000	77.098	-46.8220
1525.000000	77.064	-44.9104
1550.000000	77.007	-42.7913
1575.000000	76.952	-40.3529
1600.000000	76.934	-37.6633
1625.000000	76.964	-34.9751
1650.000000	77.013	-32.5101
1675.000000	77.040	-30.1827
1700.000000	77.049	-27.7277
1725.000000	77.058	-25.1416
1750.000000	77.070	-22.3974
1775.000000	77.094	-19.4633
1800.000000	77.143	-16.2782
1825.000000	77.250	-12.8671
1850.000000	77.434	-9.5384
1875.000000	77.671	-6.6251
1900.000000	77.906	-4.2164
1925.000000	78.105	-2.0609
1950.000000	78.273	0.1187
1975.000000	78.434	2.3893
2000.000000	78.597	4.7187
2030.000000	78.803	7.6039
2060.000000	79.035	10.5615
2090.000000	79.306	13.4989
2120.000000	79.612	16.2482
2140.000000	79.828	17.9554
2180.000000	80.289	21.0855
2200.000000	80.533	22.4070
2240.000000	80.983	24.2778
2270.000000	81.217	25.3026
2300.000000	81.361	26.5996
2330.000000	81.484	28.5015
2360.000000	81.659	30.8748
2400.000000	82.009	34.0526
2430.000000	82.320	36.0900
2470.000000	82.740	38.3475
2500.000000	83.044	39.8106
2540.000000	83.437	41.5985
2580.000000	83.833	43.2064
2620.000000	84.224	44.4883
2650.000000	84.496	45.2484
2690.000000	84.830	46.1413
2720.000000	85.070	46.7393
2760.000000	85.380	47.3689
2800.000000	85.666	47.7342
2850.000000	85.958	47.8573
2900.000000	86.158	47.8094
2950.000000	86.264	47.7628
3000.000000	86.272	47.9651
3040.000000	86.227	48.5030
3070.000000	86.183	49.1763
3110.000000	86.134	50.3897
3150.000000	86.112	51.8470
3200.000000	86.128	53.8324
3250.000000	86.189	55.8543
3300.000000	86.292	57.7820
3350.000000	86.424	59.5183
3400.000000	86.578	60.9715
3450.000000	86.734	62.0449
3500.000000	86.859	62.7290
3550.000000	86.931	63.1180
3600.000000	86.941	63.3600
3650.000000	86.892	63.5796
3700.000000	86.787	63.8529
3750.000000	86.630	64.2506
3820.000000	86.339	65.1411
3870.000000	86.097	66.0591
3950.000000	85.681	67.9118
4000.000000	85.400	69.2304
4060.000000	85.027	71.0149
4120.000000	84.614	73.1694
4180.000000	84.180	75.8163
4250.000000	83.686	79.5383
4310.000000	83.301	83.1618
4370.000000	82.961	87.0269
4440.000000	82.620	91.6820
4500.000000	82.363	95.7339
4550.000000	82.170	99.1528
4620.000000	81.932	104.0124
4680.000000	81.762	108.2254
4750.000000	81.606	113.1404
4820.000000	81.496	117.9959
4870.000000	81.447	121.3924
4940.000000	81.417	125.9786
5000.000000	81.427	129.6812
5080.000000	81.479	134.1713
5150.000000	81.541	137.5938
5220.000000	81.598	140.4928
5300.000000	81.624	143.1456
5380.000000	81.566	145.1575
5450.000000	81.412	146.5536
5520.000000	81.138	147.8633
5600.000000	80.672	149.6499
5700.000000	79.908	152.9534
5800.000000	79.063	157.8224
5900.000000	78.264	164.0359
6000.000000	77.581	171.0097
6080.000000	77.118	176.7537
6150.000000	76.757	-178.2742
6220.000000	76.414	-173.4060
6300.000000	76.012	-167.8954
6400.000000	75.465	-160.6932
6500.000000	74.902	-152.5574
6600.000000	74.436	-143.2419
6700.000000	74.194	-133.2905
6800.000000	74.209	-123.7826
6900.000000	74.394	-115.5821
7000.000000	74.616	-108.8624
7100.000000	74.774	-103.2513
7200.000000	74.836	-98.2100
7300.000000	74.823	-93.3283
7400.000000	74.782	-88.5152
7500.000000	74.739	-83.9763
7620.000000	74.657	-79.2176
7750.000000	74.446	-74.9832
7880.000000	74.009	-71.2907
8000.000000	73.362	-67.6091
8120.000000	72.519	-62.9244
8250.000000	71.498	-56.2441
8380.000000	70.514	-48.0410
8500.000000	69.740	-39.6807
8620.000000	69.143	-31.2568
8750.000000	68.703	-22.9472
8850.000000	68.478	-17.7382
9000.000000	68.166	-12.7395
9120.000000	67.710	-11.2800
9250.000000	66.744	-11.2101
9380.000000	65.160	-10.8528
9500.000000	63.181	-8.7679
9620.000000	60.793	-3.9772
9750.000000	57.851	5.6497
9880.000000	54.698	22.5770
10000.000000	51.914	46.0705
10150.000000	49.246	76.8268
10300.000000	48.097	110.5721
10440.000000	49.292	-169.3369
10600.000000	52.419	-125.3895
10750.000000	55.128	-118.1239
10900.000000	56.832	-118.2552
11060.000000	57.325	-119.9240
11200.000000	56.770	-118.1849
11380.000000	55.512	-104.5098
11500.000000	55.251	-85.8126
11720.000000	57.147	-51.3828
11800.000000	58.176	-44.0168
12060.000000	61.089	-31.6874
12200.000000	62.296	-27.5655
12410.000000	63.962	-21.0586
12500.000000	64.751	-17.9362
12650.000000	66.265	-12.8777
12800.000000	67.949	-9.2199
13150.000000	71.354	-10.2697
13200.000000	71.688	-11.3677
13400.000000	72.506	-17.0128
13600.000000	72.456	-22.7953
13800.000000	71.686	-26.6174
14000.000000	70.460	-27.5137
14300.000000	68.203	-23.0657
14500.000000	66.589	-15.3907
14750.000000	65.106	4.3132
15000.000000	65.997	33.4031
15250.000000	68.516	49.0620
15500.000000	70.517	49.5457
15750.000000	71.450	43.5624
16000.000000	71.492	35.9117
16250.000000	70.973	28.4328
16500.000000	70.160	21.4423
16750.000000	69.205	14.8602
17000.000000	68.293	8.6603
17250.000000	67.785	2.1563
17500.000000	67.766	-6.4635
17750.000000	67.645	-18.0601
18000.000000	66.873	-30.9151
18250.000000	65.388	-42.5021
18500.000000	63.508	-51.3775
18750.000000	61.933	-58.4427
19000.000000	61.385	-66.9081
19250.000000	61.768	-79.9035
19500.000000	62.461	-97.6402
19750.000000	63.014	-113.5732
20000.000000	63.278	-115.6372
