* Measurement data measured by REW V5.31.1
* Source: Frequency response averaged data
* Format: Averaged data produced from the rms magnitudes of R S2 Geek FF, R S2 Geek FF, R S2 Geek FF
* Dated: Aug 15, 2024 8:21:38 PM
* REW Settings:
*  C-weighting compensation: Off
*  Target level: 75.0 dB
* Note: Averaged data produced from the rms magnitudes of R S2 Geek FF, R S2 Geek FF, R S2 Geek FF
* Measurement: RMS Geekria Pads R
* Smoothing: 1/12 octave
* Frequency Step: 1/48 octave
* Start Frequency: 20.000 Hz
*
* Freq(Hz)	SPL(dB)
20.000000	72.849
20.299999	73.019
20.600000	73.187
20.900000	73.351
21.200001	73.512
21.400000	73.617
21.799999	73.820
22.000000	73.919
22.400000	74.110
22.700001	74.248
23.000000	74.380
23.299999	74.507
23.600000	74.628
24.000000	74.784
24.299999	74.899
24.700001	75.052
25.000000	75.166
25.400000	75.317
25.799999	75.462
26.200001	75.600
26.500000	75.701
26.900000	75.833
27.200001	75.933
27.600000	76.067
28.000000	76.199
28.500000	76.351
29.000000	76.485
29.500000	76.611
30.000000	76.739
30.400000	76.845
30.700001	76.925
31.100000	77.027
31.500000	77.121
32.000000	77.228
32.500000	77.330
33.000000	77.432
33.500000	77.534
34.000000	77.636
34.500000	77.740
35.000000	77.845
35.500000	77.950
36.000000	78.051
36.500000	78.147
37.000000	78.237
37.500000	78.320
38.200001	78.422
38.700001	78.484
39.500000	78.577
40.000000	78.638
40.599998	78.713
41.200001	78.785
41.799999	78.851
42.500000	78.922
43.099998	78.977
43.700001	79.027
44.400002	79.082
45.000000	79.126
45.500000	79.162
46.200001	79.214
46.799999	79.260
47.500000	79.315
48.200001	79.369
48.700001	79.407
49.400002	79.462
50.000000	79.512
50.799999	79.578
51.500000	79.630
52.200001	79.676
53.000000	79.725
53.799999	79.774
54.500000	79.817
55.200001	79.859
56.000000	79.902
57.000000	79.950
58.000000	79.993
59.000000	80.031
60.000000	80.057
60.799999	80.070
61.500000	80.080
62.200001	80.090
63.000000	80.100
64.000000	80.103
65.000000	80.092
66.000000	80.064
67.000000	80.022
68.000000	79.972
69.000000	79.928
70.000000	79.902
71.000000	79.898
72.000000	79.913
73.000000	79.940
74.000000	79.973
75.000000	80.008
76.199997	80.051
77.500000	80.096
78.800003	80.136
80.000000	80.164
81.199997	80.182
82.500000	80.187
83.800003	80.180
85.000000	80.166
86.199997	80.150
87.500000	80.137
88.500000	80.132
90.000000	80.134
91.199997	80.141
92.500000	80.149
93.800003	80.157
95.000000	80.163
96.199997	80.171
97.500000	80.181
98.800003	80.193
100.000000	80.205
101.500000	80.219
103.000000	80.231
104.400002	80.238
106.000000	80.240
107.500000	80.235
109.000000	80.223
110.599998	80.207
112.000000	80.196
113.800003	80.195
115.000000	80.205
117.199997	80.241
118.000000	80.256
120.599998	80.283
122.000000	80.280
124.099998	80.271
125.000000	80.268
126.500000	80.266
128.000000	80.266
131.500000	80.264
132.000000	80.261
134.000000	80.245
136.000000	80.227
138.000000	80.214
140.000000	80.207
143.000000	80.193
145.000000	80.179
147.500000	80.156
150.000000	80.126
152.500000	80.092
155.000000	80.051
157.500000	80.006
160.000000	79.957
162.500000	79.909
165.000000	79.862
167.500000	79.818
170.000000	79.780
172.500000	79.752
175.000000	79.738
177.500000	79.735
180.000000	79.743
182.500000	79.760
185.000000	79.782
187.500000	79.807
190.000000	79.831
192.500000	79.854
195.000000	79.873
197.500000	79.888
200.000000	79.896
203.000000	79.897
206.000000	79.891
209.000000	79.879
212.000000	79.863
214.000000	79.851
218.000000	79.826
220.000000	79.814
224.000000	79.792
227.000000	79.777
230.000000	79.762
233.000000	79.746
236.000000	79.729
240.000000	79.708
243.000000	79.694
247.000000	79.673
250.000000	79.655
254.000000	79.628
258.000000	79.601
262.000000	79.575
265.000000	79.559
269.000000	79.539
272.000000	79.525
276.000000	79.507
280.000000	79.488
285.000000	79.463
290.000000	79.439
295.000000	79.415
300.000000	79.390
304.000000	79.369
307.000000	79.352
311.000000	79.327
315.000000	79.301
320.000000	79.266
325.000000	79.229
330.000000	79.193
335.000000	79.158
340.000000	79.125
345.000000	79.093
350.000000	79.061
355.000000	79.030
360.000000	78.999
365.000000	78.969
370.000000	78.941
375.000000	78.913
382.000000	78.875
387.000000	78.850
395.000000	78.809
400.000000	78.783
406.000000	78.755
412.000000	78.727
418.000000	78.700
425.000000	78.666
431.000000	78.636
437.000000	78.608
444.000000	78.575
450.000000	78.549
455.000000	78.529
462.000000	78.504
468.000000	78.485
475.000000	78.465
482.000000	78.446
487.000000	78.433
494.000000	78.416
500.000000	78.402
508.000000	78.386
515.000000	78.373
522.000000	78.360
530.000000	78.346
538.000000	78.330
545.000000	78.315
552.000000	78.302
560.000000	78.287
570.000000	78.267
580.000000	78.242
590.000000	78.212
600.000000	78.175
608.000000	78.140
615.000000	78.104
622.000000	78.061
630.000000	78.005
640.000000	77.933
650.000000	77.874
660.000000	77.844
670.000000	77.850
680.000000	77.887
690.000000	77.939
700.000000	77.995
710.000000	78.047
720.000000	78.091
730.000000	78.128
740.000000	78.159
750.000000	78.186
762.000000	78.216
775.000000	78.241
788.000000	78.259
800.000000	78.271
812.000000	78.280
825.000000	78.292
838.000000	78.313
850.000000	78.346
862.000000	78.397
875.000000	78.471
885.000000	78.535
900.000000	78.633
912.000000	78.705
925.000000	78.774
938.000000	78.831
950.000000	78.869
962.000000	78.894
975.000000	78.908
988.000000	78.915
1000.000000	78.923
1015.000000	78.936
1030.000000	78.949
1044.000000	78.954
1060.000000	78.955
1075.000000	78.958
1090.000000	78.973
1106.000000	79.007
1120.000000	79.052
1138.000000	79.117
1150.000000	79.155
1172.000000	79.216
1180.000000	79.239
1206.000000	79.326
1220.000000	79.373
1241.000000	79.427
1250.000000	79.443
1265.000000	79.463
1280.000000	79.481
1315.000000	79.530
1320.000000	79.536
1340.000000	79.555
1360.000000	79.558
1380.000000	79.537
1400.000000	79.496
1430.000000	79.428
1450.000000	79.382
1475.000000	79.321
1500.000000	79.265
1525.000000	79.215
1550.000000	79.172
1575.000000	79.153
1600.000000	79.193
1625.000000	79.298
1650.000000	79.445
1675.000000	79.599
1700.000000	79.714
1725.000000	79.758
1750.000000	79.740
1775.000000	79.706
1800.000000	79.697
1825.000000	79.735
1850.000000	79.825
1875.000000	79.959
1900.000000	80.129
1925.000000	80.332
1950.000000	80.569
1975.000000	80.834
2000.000000	81.114
2030.000000	81.443
2060.000000	81.743
2090.000000	82.013
2120.000000	82.249
2140.000000	82.381
2180.000000	82.591
2200.000000	82.683
2240.000000	82.878
2270.000000	83.046
2300.000000	83.227
2330.000000	83.412
2360.000000	83.591
2400.000000	83.816
2430.000000	83.972
2470.000000	84.170
2500.000000	84.318
2540.000000	84.523
2580.000000	84.749
2620.000000	85.005
2650.000000	85.215
2690.000000	85.506
2720.000000	85.721
2760.000000	85.991
2800.000000	86.237
2850.000000	86.529
2900.000000	86.825
2950.000000	87.107
3000.000000	87.348
3040.000000	87.518
3070.000000	87.638
3110.000000	87.786
3150.000000	87.912
3200.000000	88.031
3250.000000	88.108
3300.000000	88.146
3350.000000	88.145
3400.000000	88.100
3450.000000	88.012
3500.000000	87.880
3550.000000	87.701
3600.000000	87.480
3650.000000	87.224
3700.000000	86.939
3750.000000	86.633
3820.000000	86.173
3870.000000	85.818
3950.000000	85.204
4000.000000	84.808
4060.000000	84.346
4120.000000	83.920
4180.000000	83.541
4250.000000	83.142
4310.000000	82.812
4370.000000	82.478
4440.000000	82.085
4500.000000	81.751
4550.000000	81.476
4620.000000	81.100
4680.000000	80.798
4750.000000	80.488
4820.000000	80.246
4870.000000	80.126
4940.000000	80.039
5000.000000	80.043
5080.000000	80.151
5150.000000	80.325
5220.000000	80.548
5300.000000	80.823
5380.000000	81.071
5450.000000	81.225
5520.000000	81.287
5600.000000	81.216
5700.000000	80.891
5800.000000	80.316
5900.000000	79.562
6000.000000	78.755
6080.000000	78.172
6150.000000	77.762
6220.000000	77.469
6300.000000	77.260
6400.000000	77.111
6500.000000	76.986
6600.000000	76.839
6700.000000	76.706
6800.000000	76.679
6900.000000	76.831
7000.000000	77.133
7100.000000	77.464
7200.000000	77.696
7300.000000	77.759
7400.000000	77.653
7500.000000	77.419
7620.000000	77.046
7750.000000	76.627
7880.000000	76.259
8000.000000	75.965
8120.000000	75.695
8250.000000	75.418
8380.000000	75.159
8500.000000	74.938
8620.000000	74.730
8750.000000	74.488
8850.000000	74.260
9000.000000	73.818
9120.000000	73.383
9250.000000	72.850
9380.000000	72.276
9500.000000	71.737
9620.000000	71.226
9750.000000	70.750
9880.000000	70.401
10000.000000	70.211
10150.000000	70.118
10300.000000	70.083
10440.000000	70.028
10600.000000	69.944
10750.000000	69.891
10900.000000	69.903
11060.000000	70.032
11200.000000	70.284
11380.000000	70.787
11500.000000	71.185
11720.000000	71.930
11800.000000	72.200
12060.000000	73.136
12200.000000	73.694
12410.000000	74.572
12500.000000	74.951
12650.000000	75.577
12800.000000	76.171
13150.000000	77.081
13200.000000	77.107
13400.000000	76.820
13600.000000	75.849
13800.000000	74.279
14000.000000	72.352
14300.000000	69.493
14500.000000	68.037
14750.000000	67.007
15000.000000	66.855
15250.000000	67.289
15500.000000	67.722
15750.000000	67.713
16000.000000	67.350
16250.000000	67.103
16500.000000	67.403
16750.000000	68.291
17000.000000	69.379
17250.000000	70.194
17500.000000	70.445
17750.000000	70.071
18000.000000	69.174
18250.000000	67.903
18500.000000	66.398
18750.000000	64.841
19000.000000	63.527
19250.000000	62.787
19500.000000	62.679
19750.000000	62.910
