* Measurement data measured by REW V5.31.1
* Source: EXCL: Headset (USB-C to 3.5mm Headphone Jack Adapter), MICROPHONE (Master Volume), 0, volume: 0.420. Timing signal peak level -31.2 dBFS, measurement signal peak level -26.4 dBFS
* Format: 256k Log Swept Sine, 1 sweep at -12.0 dBFS using an acoustic timing reference
* Dated: Jul 12, 2024 10:10:12 PM
* REW Settings:
*  C-weighting compensation: Off
*  Target level: 75.0 dB
* Note: Delay -0.3783 ms (-130 mm, -5.11 in) using estimated IR delay relative to Acoustic reference played from  L with no timing offset Clock adjustment: 1.4 ppm
* Measurement: L s2 ZMF PL
* Smoothing: 1/12 octave
* Frequency Step: 1/48 octave
* Start Frequency: 20.000 Hz
*
* Freq(Hz)	SPL(dB)	Phase(degrees)
20.000000	65.359	-58.2224
20.299999	65.526	-58.9395
20.600000	65.706	-59.7029
20.900000	65.889	-60.5746
21.200001	66.062	-61.5615
21.400000	66.165	-62.2592
21.799999	66.335	-63.6290
22.000000	66.405	-64.2442
22.400000	66.536	-65.2467
22.700001	66.645	-65.8064
23.000000	66.779	-66.2769
23.299999	66.937	-66.7577
23.600000	67.111	-67.3317
24.000000	67.344	-68.2915
24.299999	67.504	-69.1197
24.700001	67.690	-70.2512
25.000000	67.813	-71.0486
25.400000	67.967	-71.9973
25.799999	68.122	-72.8399
26.200001	68.282	-73.6388
26.500000	68.402	-74.2383
26.900000	68.559	-75.0476
27.200001	68.671	-75.6559
27.600000	68.813	-76.4569
28.000000	68.949	-77.2403
28.500000	69.111	-78.1962
29.000000	69.264	-79.1340
29.500000	69.410	-80.0670
30.000000	69.543	-80.9935
30.400000	69.639	-81.6996
30.700001	69.706	-82.1820
31.100000	69.796	-82.7416
31.500000	69.897	-83.2225
32.000000	70.050	-83.8261
32.500000	70.222	-84.5884
33.000000	70.386	-85.5626
33.500000	70.520	-86.6416
34.000000	70.627	-87.6731
34.500000	70.723	-88.5910
35.000000	70.822	-89.4300
35.500000	70.924	-90.2370
36.000000	71.024	-91.0119
36.500000	71.128	-91.7407
37.000000	71.240	-92.4511
37.500000	71.359	-93.2012
38.200001	71.515	-94.3500
38.700001	71.607	-95.1660
39.500000	71.733	-96.2882
40.000000	71.812	-96.8701
40.599998	71.912	-97.5183
41.200001	72.013	-98.1652
41.799999	72.107	-98.8179
42.500000	72.208	-99.5722
43.099998	72.290	-100.2173
43.700001	72.368	-100.8761
44.400002	72.456	-101.6629
45.000000	72.531	-102.3372
45.500000	72.597	-102.8964
46.200001	72.696	-103.6788
46.799999	72.786	-104.3303
47.500000	72.904	-105.0538
48.200001	73.036	-105.8048
48.700001	73.125	-106.3750
49.400002	73.230	-107.0999
50.000000	73.315	-107.5446
50.799999	73.459	-108.0368
51.500000	73.597	-108.6730
52.200001	73.701	-109.5561
53.000000	73.752	-110.5937
53.799999	73.759	-111.2895
54.500000	73.795	-111.5835
55.200001	73.884	-111.9776
56.000000	73.973	-112.7288
57.000000	74.041	-113.1321
58.000000	74.268	-113.0870
59.000000	74.533	-114.2566
60.000000	74.597	-115.8206
60.799999	74.565	-116.5274
61.500000	74.537	-116.8193
62.200001	74.522	-116.9971
63.000000	74.520	-117.1992
64.000000	74.538	-117.5641
65.000000	74.581	-118.0874
66.000000	74.652	-118.7827
67.000000	74.738	-119.5886
68.000000	74.832	-120.4075
69.000000	74.924	-121.1791
70.000000	75.006	-121.8690
71.000000	75.075	-122.4781
72.000000	75.136	-123.0417
73.000000	75.194	-123.6187
74.000000	75.252	-124.2573
75.000000	75.307	-124.9458
76.199997	75.374	-125.7468
77.500000	75.456	-126.5256
78.800003	75.542	-127.2864
80.000000	75.607	-127.9288
81.199997	75.669	-128.4977
82.500000	75.741	-129.1635
83.800003	75.813	-129.9380
85.000000	75.877	-130.7154
86.199997	75.938	-131.5067
87.500000	76.001	-132.3538
88.500000	76.046	-132.9946
90.000000	76.106	-133.9484
91.199997	76.148	-134.7177
92.500000	76.186	-135.5628
93.800003	76.220	-136.4122
95.000000	76.245	-137.1937
96.199997	76.266	-137.9607
97.500000	76.283	-138.7759
98.800003	76.294	-139.5797
100.000000	76.299	-140.3013
101.500000	76.299	-141.1436
103.000000	76.297	-141.8997
104.400002	76.294	-142.5349
106.000000	76.290	-143.1644
107.500000	76.295	-143.7276
109.000000	76.304	-144.3708
110.599998	76.310	-145.2096
112.000000	76.295	-146.0602
113.800003	76.246	-147.1068
115.000000	76.206	-147.7262
117.199997	76.134	-148.7390
118.000000	76.107	-149.0741
120.599998	76.024	-150.0309
122.000000	75.983	-150.4794
124.099998	75.926	-151.1346
125.000000	75.901	-151.4138
126.500000	75.857	-151.8699
128.000000	75.812	-152.3189
131.500000	75.683	-153.3378
132.000000	75.662	-153.4733
134.000000	75.572	-153.9802
136.000000	75.476	-154.4043
138.000000	75.375	-154.6997
140.000000	75.275	-154.8489
143.000000	75.145	-154.8846
145.000000	75.079	-154.8527
147.500000	75.016	-154.8072
150.000000	74.966	-154.7751
152.500000	74.929	-154.7723
155.000000	74.900	-154.8041
157.500000	74.874	-154.8808
160.000000	74.841	-155.0428
162.500000	74.796	-155.2682
165.000000	74.745	-155.5161
167.500000	74.688	-155.7992
170.000000	74.624	-156.1034
172.500000	74.558	-156.3795
175.000000	74.492	-156.5875
177.500000	74.420	-156.7287
180.000000	74.340	-156.8233
182.500000	74.257	-156.8875
185.000000	74.172	-156.9354
187.500000	74.083	-156.9795
190.000000	73.990	-157.0226
192.500000	73.892	-157.0390
195.000000	73.793	-156.9693
197.500000	73.693	-156.8061
200.000000	73.590	-156.6042
203.000000	73.465	-156.3753
206.000000	73.350	-156.1660
209.000000	73.252	-155.9277
212.000000	73.168	-155.6301
214.000000	73.113	-155.4030
218.000000	72.989	-154.8976
220.000000	72.921	-154.6322
224.000000	72.782	-154.0653
227.000000	72.675	-153.5914
230.000000	72.567	-153.0742
233.000000	72.466	-152.5205
236.000000	72.374	-151.9370
240.000000	72.257	-151.1106
243.000000	72.166	-150.4461
247.000000	72.041	-149.5303
250.000000	71.952	-148.8459
254.000000	71.842	-147.9246
258.000000	71.742	-146.9576
262.000000	71.646	-145.9133
265.000000	71.576	-145.0748
269.000000	71.488	-143.8942
272.000000	71.427	-142.9709
276.000000	71.355	-141.6942
280.000000	71.292	-140.3922
285.000000	71.227	-138.7814
290.000000	71.180	-137.1919
295.000000	71.155	-135.6105
300.000000	71.146	-134.0639
304.000000	71.147	-132.8763
307.000000	71.151	-132.0027
311.000000	71.162	-130.8582
315.000000	71.177	-129.7509
320.000000	71.197	-128.4164
325.000000	71.217	-127.1309
330.000000	71.237	-125.8832
335.000000	71.260	-124.6702
340.000000	71.289	-123.4980
345.000000	71.322	-122.3471
350.000000	71.357	-121.1998
355.000000	71.391	-120.0656
360.000000	71.427	-118.9564
365.000000	71.467	-117.8743
370.000000	71.510	-116.8348
375.000000	71.552	-115.8434
382.000000	71.610	-114.5005
387.000000	71.652	-113.5783
395.000000	71.714	-112.1940
400.000000	71.749	-111.3571
406.000000	71.788	-110.3666
412.000000	71.826	-109.4041
418.000000	71.860	-108.4803
425.000000	71.895	-107.4572
431.000000	71.918	-106.6156
437.000000	71.929	-105.8006
444.000000	71.923	-104.8623
450.000000	71.904	-104.0420
455.000000	71.877	-103.3336
462.000000	71.826	-102.2648
468.000000	71.771	-101.2290
475.000000	71.698	-99.8388
482.000000	71.625	-98.2517
487.000000	71.579	-97.0066
494.000000	71.527	-95.1221
500.000000	71.501	-93.3879
508.000000	71.500	-90.9354
515.000000	71.534	-88.7279
522.000000	71.602	-86.5472
530.000000	71.714	-84.1796
538.000000	71.852	-82.0029
545.000000	71.983	-80.2639
552.000000	72.119	-78.6647
560.000000	72.278	-76.9876
570.000000	72.474	-75.0649
580.000000	72.665	-73.2899
590.000000	72.848	-71.6560
600.000000	73.025	-70.1389
608.000000	73.160	-69.0015
615.000000	73.270	-68.0633
622.000000	73.373	-67.1645
630.000000	73.482	-66.1565
640.000000	73.609	-64.9003
650.000000	73.728	-63.6533
660.000000	73.840	-62.4270
670.000000	73.943	-61.2324
680.000000	74.034	-60.0655
690.000000	74.112	-58.9007
700.000000	74.178	-57.6885
710.000000	74.238	-56.3856
720.000000	74.299	-54.9787
730.000000	74.366	-53.4835
740.000000	74.446	-51.9392
750.000000	74.541	-50.3984
762.000000	74.667	-48.6310
775.000000	74.802	-46.8535
788.000000	74.924	-45.1089
800.000000	75.033	-43.3888
812.000000	75.163	-41.5582
825.000000	75.341	-39.6253
838.000000	75.546	-37.9379
850.000000	75.739	-36.6295
862.000000	75.923	-35.5087
875.000000	76.106	-34.4599
885.000000	76.232	-33.7453
900.000000	76.393	-32.7689
912.000000	76.499	-32.0181
925.000000	76.598	-31.2072
938.000000	76.680	-30.4021
950.000000	76.739	-29.6339
962.000000	76.787	-28.7987
975.000000	76.835	-27.8004
988.000000	76.890	-26.7411
1000.000000	76.952	-25.7755
1015.000000	77.038	-24.6859
1030.000000	77.118	-23.7672
1044.000000	77.175	-23.0506
1060.000000	77.211	-22.3083
1075.000000	77.220	-21.6416
1090.000000	77.205	-21.0116
1106.000000	77.153	-20.3487
1120.000000	77.074	-19.6784
1138.000000	76.945	-18.5564
1150.000000	76.860	-17.6853
1172.000000	76.702	-16.0749
1180.000000	76.638	-15.4844
1206.000000	76.402	-13.4617
1220.000000	76.253	-12.3535
1241.000000	75.979	-10.5356
1250.000000	75.844	-9.6389
1265.000000	75.607	-7.9411
1280.000000	75.363	-5.9855
1315.000000	74.795	-0.4522
1320.000000	74.716	0.4737
1340.000000	74.438	4.5662
1360.000000	74.255	8.9515
1380.000000	74.150	13.1619
1400.000000	74.078	17.1349
1430.000000	73.981	22.8417
1450.000000	73.912	26.6509
1475.000000	73.840	31.5847
1500.000000	73.804	36.6250
1525.000000	73.802	41.6912
1550.000000	73.837	46.7387
1575.000000	73.910	51.6652
1600.000000	74.013	56.3436
1625.000000	74.113	60.7066
1650.000000	74.181	64.8909
1675.000000	74.213	69.2124
1700.000000	74.247	73.8412
1725.000000	74.316	78.6604
1750.000000	74.427	83.4949
1775.000000	74.575	88.2095
1800.000000	74.742	92.7002
1825.000000	74.906	96.9767
1850.000000	75.049	101.1547
1875.000000	75.175	105.4474
1900.000000	75.315	109.9418
1925.000000	75.489	114.4670
1950.000000	75.685	118.8649
1975.000000	75.887	123.1683
2000.000000	76.096	127.4551
2030.000000	76.366	132.6283
2060.000000	76.679	137.7603
2090.000000	77.029	142.5901
2120.000000	77.373	147.0042
2140.000000	77.580	149.8387
2180.000000	77.968	155.7260
2200.000000	78.183	158.8324
2240.000000	78.696	164.9035
2270.000000	79.120	168.9913
2300.000000	79.539	172.6919
2330.000000	79.944	176.1040
2360.000000	80.330	179.2924
2400.000000	80.813	-176.7130
2430.000000	81.156	-173.8694
2470.000000	81.590	-170.2771
2500.000000	81.893	-167.7610
2540.000000	82.252	-164.5613
2580.000000	82.567	-161.4061
2620.000000	82.852	-158.2744
2650.000000	83.047	-155.9398
2690.000000	83.286	-152.8091
2720.000000	83.457	-150.4699
2760.000000	83.668	-147.4297
2800.000000	83.846	-144.4613
2850.000000	84.016	-140.7142
2900.000000	84.139	-136.7209
2950.000000	84.259	-132.4091
3000.000000	84.407	-127.9355
3040.000000	84.552	-124.3900
3070.000000	84.672	-121.8264
3110.000000	84.835	-118.5906
3150.000000	84.986	-115.5530
3200.000000	85.148	-111.9730
3250.000000	85.275	-108.5774
3300.000000	85.364	-105.3174
3350.000000	85.413	-102.1765
3400.000000	85.415	-99.1266
3450.000000	85.364	-96.0953
3500.000000	85.265	-92.9945
3550.000000	85.128	-89.7972
3600.000000	84.961	-86.5399
3650.000000	84.758	-83.2634
3700.000000	84.507	-79.9554
3750.000000	84.198	-76.5404
3820.000000	83.660	-71.3344
3870.000000	83.214	-67.1265
3950.000000	82.448	-59.3443
4000.000000	81.973	-53.8515
4060.000000	81.432	-46.7480
4120.000000	80.934	-39.2389
4180.000000	80.473	-31.4182
4250.000000	79.982	-21.9083
4310.000000	79.611	-13.4532
4370.000000	79.296	-4.8181
4440.000000	78.993	5.3439
4500.000000	78.781	14.0847
4550.000000	78.634	21.3967
4620.000000	78.475	31.6827
4680.000000	78.389	40.5355
4750.000000	78.357	50.8490
4820.000000	78.408	61.0148
4870.000000	78.493	68.0842
4940.000000	78.671	77.5955
5000.000000	78.863	85.3320
5080.000000	79.158	95.0066
5150.000000	79.439	102.8370
5220.000000	79.728	110.0142
5300.000000	80.044	117.3248
5380.000000	80.300	123.6414
5450.000000	80.433	128.4099
5520.000000	80.445	132.6246
5600.000000	80.274	137.0769
5700.000000	79.763	142.7706
5800.000000	78.958	149.4359
5900.000000	77.958	157.6534
6000.000000	76.889	167.5229
6080.000000	76.049	176.4111
6150.000000	75.352	-175.3014
6220.000000	74.693	-166.7127
6300.000000	73.975	-156.6830
6400.000000	73.090	-143.8348
6500.000000	72.195	-130.3594
6600.000000	71.322	-115.9461
6700.000000	70.543	-100.6833
6800.000000	69.908	-85.1271
6900.000000	69.390	-69.8386
7000.000000	68.920	-54.9424
7100.000000	68.443	-40.2213
7200.000000	67.938	-25.3443
7300.000000	67.414	-9.9242
7400.000000	66.925	6.3448
7500.000000	66.554	23.4014
7620.000000	66.351	44.1412
7750.000000	66.410	65.6558
7880.000000	66.610	85.4791
8000.000000	66.814	102.6972
8120.000000	67.063	119.3569
8250.000000	67.461	136.4177
8380.000000	67.966	151.4639
8500.000000	68.399	162.9929
8620.000000	68.670	172.2781
8750.000000	68.668	-179.8657
8850.000000	68.390	-175.1312
9000.000000	67.343	-169.3254
9120.000000	65.791	-164.0896
9250.000000	63.312	-154.0831
9380.000000	60.207	-132.7709
9500.000000	57.402	-95.9265
9620.000000	55.607	-55.9856
9750.000000	55.027	-26.9835
9880.000000	54.942	-7.0540
10000.000000	54.705	8.7544
10150.000000	54.008	28.1128
10300.000000	52.874	49.2556
10440.000000	51.723	75.5364
10600.000000	51.752	128.6709
10750.000000	54.022	-174.9231
10900.000000	57.050	-144.5737
11060.000000	59.851	-127.1414
11200.000000	61.641	-116.9197
11380.000000	63.072	-105.5139
11500.000000	63.669	-97.1820
11720.000000	64.551	-79.4015
11800.000000	64.871	-72.3608
12060.000000	66.033	-48.1428
12200.000000	66.832	-34.6958
12410.000000	68.329	-15.4595
12500.000000	69.044	-8.0388
12650.000000	70.224	2.7330
12800.000000	71.241	11.3125
13150.000000	72.160	25.0618
13200.000000	72.090	26.7632
13400.000000	71.349	34.0532
13600.000000	69.988	42.9226
13800.000000	68.148	53.8286
14000.000000	65.949	66.6821
14300.000000	62.284	87.8760
14500.000000	60.292	100.7283
14750.000000	60.911	31.0784
15000.000000	64.549	-39.5839
15250.000000	67.907	-36.8586
15500.000000	69.924	-36.8109
15750.000000	70.664	-37.4602
16000.000000	70.666	-36.6123
16250.000000	70.360	-34.1594
16500.000000	69.892	-30.4279
16750.000000	69.383	-25.4015
17000.000000	69.165	-19.5176
17250.000000	69.264	-14.6917
17500.000000	68.892	-11.5957
17750.000000	67.474	-7.0973
18000.000000	65.216	2.0405
18250.000000	62.917	15.3744
18500.000000	61.663	28.7920
18750.000000	61.732	38.3054
19000.000000	62.375	42.1387
19250.000000	62.941	39.4333
19500.000000	63.177	29.8400
19750.000000	63.095	19.9508
20000.000000	62.931	28.1125
