* Measurement data measured by REW V5.20.13
* Source: EXCL: Headset (USB-C to 3.5mm Headphone Jack Adapter), MICROPHONE (Master Volume), 0, volume: 0.260
* Format: 256k Log Swept Sine, 1 sweep at -12.0 dBFS with no timing reference
* Dated: Nov 4, 2023 12:22:42 PM
* REW Settings:
*  C-weighting compensation: Off
*  Target level: 75.0 dB
* Note: Satyr1 Dekoni Elite V TH900
* Measurement: Satyr1 Dekoni Elite V TH900
* Smoothing: 1/12 octave
* Frequency Step: 1/48 octave
* Start Frequency: 20.000 Hz
*
* Freq(Hz)	SPL(dB)	Phase(degrees)
20.000000	64.262	166.5681
20.299999	64.505	164.7337
20.600000	64.750	162.9896
20.900000	64.997	161.2957
21.200001	65.243	159.6116
21.400000	65.403	158.4815
21.799999	65.707	156.2087
22.000000	65.850	155.0762
22.400000	66.117	152.8435
22.700001	66.303	151.2075
23.000000	66.480	149.5948
23.299999	66.648	147.9877
23.600000	66.804	146.3734
24.000000	66.991	144.2200
24.299999	67.115	142.6387
24.700001	67.265	140.6331
25.000000	67.377	139.2206
25.400000	67.538	137.4222
25.799999	67.718	135.6158
26.200001	67.909	133.6981
26.500000	68.049	132.1710
26.900000	68.219	130.0792
27.200001	68.332	128.5372
27.600000	68.474	126.6097
28.000000	68.620	124.8582
28.500000	68.826	122.8210
29.000000	69.051	120.7465
29.500000	69.260	118.5367
30.000000	69.419	116.3330
30.400000	69.510	114.7541
30.700001	69.569	113.7498
31.100000	69.658	112.6513
31.500000	69.780	111.7006
32.000000	69.981	110.3719
32.500000	70.194	108.5457
33.000000	70.344	106.2058
33.500000	70.388	103.7470
34.000000	70.347	101.7409
34.500000	70.303	100.4899
35.000000	70.352	99.7718
35.500000	70.529	99.0034
36.000000	70.783	97.6389
36.500000	71.027	95.5160
37.000000	71.195	92.8989
37.500000	71.267	90.2408
38.200001	71.255	87.1331
38.700001	71.222	85.5176
39.500000	71.219	83.6636
40.000000	71.258	82.6589
40.599998	71.326	81.3905
41.200001	71.398	80.0130
41.799999	71.463	78.5546
42.500000	71.529	76.7816
43.099998	71.576	75.2241
43.700001	71.613	73.6812
44.400002	71.652	71.9666
45.000000	71.687	70.5852
45.500000	71.717	69.4889
46.200001	71.757	68.0319
46.799999	71.786	66.8473
47.500000	71.813	65.5041
48.200001	71.823	64.1596
48.700001	71.817	63.1940
49.400002	71.796	61.8474
50.000000	71.776	60.6884
50.799999	71.765	59.0621
51.500000	71.777	57.4798
52.200001	71.799	55.7479
53.000000	71.824	53.7758
53.799999	71.858	52.1062
54.500000	71.911	50.9878
55.200001	71.985	50.1376
56.000000	72.070	49.4511
57.000000	72.148	49.0103
58.000000	72.182	49.0288
59.000000	72.234	49.2558
60.000000	72.329	48.5908
60.799999	72.335	47.0106
61.500000	72.248	45.2812
62.200001	72.113	43.6203
63.000000	71.970	41.9102
64.000000	71.862	39.9395
65.000000	71.835	38.1200
66.000000	71.856	36.5285
67.000000	71.892	35.2526
68.000000	71.921	34.2562
69.000000	71.924	33.4198
70.000000	71.899	32.6320
71.000000	71.853	31.7955
72.000000	71.796	30.8525
73.000000	71.736	29.8271
74.000000	71.680	28.7921
75.000000	71.632	27.8104
76.199997	71.577	26.7869
77.500000	71.521	25.9252
78.800003	71.476	25.2145
80.000000	71.445	24.5399
81.199997	71.423	23.7714
82.500000	71.405	22.8656
83.800003	71.393	21.9691
85.000000	71.384	21.1871
86.199997	71.369	20.4617
87.500000	71.342	19.7302
88.500000	71.314	19.1847
90.000000	71.264	18.3607
91.199997	71.225	17.6859
92.500000	71.191	16.9698
93.800003	71.169	16.3012
95.000000	71.158	15.7329
96.199997	71.150	15.2054
97.500000	71.137	14.6474
98.800003	71.113	14.0699
100.000000	71.080	13.5077
101.500000	71.033	12.7540
103.000000	70.991	11.9410
104.400002	70.959	11.1859
106.000000	70.932	10.4290
107.500000	70.919	9.8061
109.000000	70.904	9.1676
110.599998	70.872	8.4272
112.000000	70.831	7.7660
113.800003	70.775	6.9845
115.000000	70.737	6.5710
117.199997	70.672	6.1110
118.000000	70.648	5.9949
120.599998	70.548	5.3387
122.000000	70.463	4.7371
124.099998	70.335	3.7826
125.000000	70.295	3.4083
126.500000	70.255	2.8710
128.000000	70.234	2.4692
131.500000	70.149	1.8004
132.000000	70.126	1.6921
134.000000	70.010	1.2004
136.000000	69.892	0.6846
138.000000	69.808	0.2232
140.000000	69.753	-0.1448
143.000000	69.672	-0.5521
145.000000	69.597	-0.7495
147.500000	69.497	-0.9052
150.000000	69.407	-1.0351
152.500000	69.310	-1.2046
155.000000	69.189	-1.3109
157.500000	69.061	-1.2715
160.000000	68.963	-1.1885
162.500000	68.914	-1.2456
165.000000	68.895	-1.4398
167.500000	68.887	-1.5728
170.000000	68.885	-1.5930
172.500000	68.885	-1.6488
175.000000	68.874	-1.8329
177.500000	68.850	-2.0800
180.000000	68.822	-2.2847
182.500000	68.797	-2.4141
185.000000	68.772	-2.5472
187.500000	68.732	-2.7218
190.000000	68.674	-2.8822
192.500000	68.607	-2.9896
195.000000	68.540	-3.0435
197.500000	68.486	-3.0697
200.000000	68.450	-3.1049
203.000000	68.415	-3.1522
206.000000	68.382	-3.1671
209.000000	68.354	-3.1857
212.000000	68.327	-3.2383
214.000000	68.308	-3.2648
218.000000	68.262	-3.2321
220.000000	68.236	-3.1940
224.000000	68.181	-3.1307
227.000000	68.146	-3.0565
230.000000	68.122	-2.9291
233.000000	68.106	-2.7203
236.000000	68.091	-2.4186
240.000000	68.051	-2.1080
243.000000	68.005	-2.1341
247.000000	67.942	-2.3056
250.000000	67.901	-2.3273
254.000000	67.856	-2.2029
258.000000	67.827	-1.9973
262.000000	67.804	-1.7843
265.000000	67.787	-1.6692
269.000000	67.768	-1.5626
272.000000	67.762	-1.4869
276.000000	67.764	-1.3868
280.000000	67.758	-1.3391
285.000000	67.724	-1.3418
290.000000	67.703	-1.1505
295.000000	67.712	-0.8054
300.000000	67.721	-0.5625
304.000000	67.721	-0.4874
307.000000	67.718	-0.4386
311.000000	67.715	-0.3479
315.000000	67.712	-0.2811
320.000000	67.699	-0.2855
325.000000	67.681	-0.3184
330.000000	67.672	-0.2518
335.000000	67.670	-0.0349
340.000000	67.671	0.2372
345.000000	67.667	0.4608
350.000000	67.657	0.6355
355.000000	67.645	0.8527
360.000000	67.631	1.1655
365.000000	67.617	1.4646
370.000000	67.618	1.6332
375.000000	67.632	1.7148
382.000000	67.665	1.8384
387.000000	67.689	1.9800
395.000000	67.719	2.3112
400.000000	67.738	2.4562
406.000000	67.771	2.4864
412.000000	67.806	2.3862
418.000000	67.828	2.2235
425.000000	67.830	2.1481
431.000000	67.822	2.2663
437.000000	67.814	2.4493
444.000000	67.806	2.6600
450.000000	67.812	2.8827
455.000000	67.826	3.0847
462.000000	67.853	3.2925
468.000000	67.876	3.3937
475.000000	67.902	3.5244
482.000000	67.928	3.7335
487.000000	67.948	3.9070
494.000000	67.974	4.1270
500.000000	67.995	4.2531
508.000000	68.024	4.3151
515.000000	68.052	4.3634
522.000000	68.079	4.4679
530.000000	68.106	4.5637
538.000000	68.135	4.5310
545.000000	68.156	4.4465
552.000000	68.168	4.3682
560.000000	68.170	4.3328
570.000000	68.171	4.4419
580.000000	68.174	4.6433
590.000000	68.183	4.7805
600.000000	68.209	4.8843
608.000000	68.240	5.0419
615.000000	68.268	5.2266
622.000000	68.292	5.3887
630.000000	68.319	5.5210
640.000000	68.360	5.6945
650.000000	68.408	5.9034
660.000000	68.455	6.0613
670.000000	68.501	6.1295
680.000000	68.543	6.1325
690.000000	68.575	6.0797
700.000000	68.600	5.9272
710.000000	68.613	5.6507
720.000000	68.592	5.3264
730.000000	68.533	5.1423
740.000000	68.460	5.3100
750.000000	68.407	5.8478
762.000000	68.397	6.6943
775.000000	68.443	7.5289
788.000000	68.522	8.1998
800.000000	68.612	8.6830
812.000000	68.716	9.0510
825.000000	68.835	9.3301
838.000000	68.957	9.4376
850.000000	69.062	9.3796
862.000000	69.147	9.2052
875.000000	69.214	8.9187
885.000000	69.249	8.6760
900.000000	69.281	8.3756
912.000000	69.301	8.2216
925.000000	69.325	8.0980
938.000000	69.356	7.9388
950.000000	69.396	7.6827
962.000000	69.435	7.2261
975.000000	69.440	6.4620
988.000000	69.365	5.5902
1000.000000	69.204	5.0667
1015.000000	68.916	5.4655
1030.000000	68.689	7.2715
1044.000000	68.667	9.4492
1060.000000	68.827	11.2930
1075.000000	69.009	12.1104
1090.000000	69.142	12.4845
1106.000000	69.248	12.8619
1120.000000	69.346	13.2026
1138.000000	69.480	13.4465
1150.000000	69.559	13.4817
1172.000000	69.679	13.4709
1180.000000	69.719	13.4562
1206.000000	69.831	13.2989
1220.000000	69.873	13.1592
1241.000000	69.911	12.9187
1250.000000	69.916	12.8107
1265.000000	69.908	12.6542
1280.000000	69.878	12.6011
1315.000000	69.768	13.3295
1320.000000	69.758	13.5316
1340.000000	69.749	14.4645
1360.000000	69.796	15.4167
1380.000000	69.878	16.1859
1400.000000	69.966	16.7687
1430.000000	70.092	17.4967
1450.000000	70.169	17.9123
1475.000000	70.256	18.3688
1500.000000	70.331	18.7897
1525.000000	70.379	19.2681
1550.000000	70.413	20.0165
1575.000000	70.478	21.0372
1600.000000	70.597	22.1387
1625.000000	70.765	23.0784
1650.000000	70.956	23.6693
1675.000000	71.130	23.8989
1700.000000	71.259	23.9514
1725.000000	71.344	24.0785
1750.000000	71.413	24.4141
1775.000000	71.491	24.9247
1800.000000	71.587	25.5314
1825.000000	71.709	26.1448
1850.000000	71.858	26.6464
1875.000000	72.023	26.9163
1900.000000	72.177	26.8772
1925.000000	72.289	26.5492
1950.000000	72.333	26.0514
1975.000000	72.290	25.6146
2000.000000	72.149	25.6037
2030.000000	71.893	26.7682
2060.000000	71.681	29.6562
2090.000000	71.714	33.7805
2120.000000	72.049	37.7979
2140.000000	72.376	39.8924
2180.000000	73.080	42.4659
2200.000000	73.410	43.1369
2240.000000	73.999	43.8766
2270.000000	74.403	44.2080
2300.000000	74.789	44.4308
2330.000000	75.163	44.5731
2360.000000	75.532	44.6519
2400.000000	76.020	44.5817
2430.000000	76.371	44.3590
2470.000000	76.805	43.9337
2500.000000	77.112	43.6406
2540.000000	77.523	43.4142
2580.000000	77.978	43.3269
2620.000000	78.494	43.1243
2650.000000	78.911	42.7401
2690.000000	79.483	41.7533
2720.000000	79.895	40.5795
2760.000000	80.380	38.5811
2800.000000	80.802	36.5074
2850.000000	81.330	34.0467
2900.000000	81.883	31.2048
2950.000000	82.386	27.6334
3000.000000	82.789	23.5539
3040.000000	83.038	20.1289
3070.000000	83.186	17.5315
3110.000000	83.338	14.0696
3150.000000	83.441	10.6310
3200.000000	83.499	6.4327
3250.000000	83.490	2.4406
3300.000000	83.427	-1.3282
3350.000000	83.315	-4.8764
3400.000000	83.158	-8.1660
3450.000000	82.963	-11.1833
3500.000000	82.733	-13.9080
3550.000000	82.473	-16.2823
3600.000000	82.201	-18.2868
3650.000000	81.930	-19.9846
3700.000000	81.666	-21.4637
3750.000000	81.407	-22.7748
3820.000000	81.050	-24.4009
3870.000000	80.790	-25.4552
3950.000000	80.340	-26.8712
4000.000000	80.028	-27.4241
4060.000000	79.639	-27.5437
4120.000000	79.279	-27.0282
4180.000000	78.999	-26.1183
4250.000000	78.782	-25.0557
4310.000000	78.650	-24.3964
4370.000000	78.524	-23.9397
4440.000000	78.358	-23.4493
4500.000000	78.201	-22.9146
4550.000000	78.067	-22.3339
4620.000000	77.883	-21.2978
4680.000000	77.735	-20.1937
4750.000000	77.574	-18.5731
4820.000000	77.441	-16.4379
4870.000000	77.386	-14.5031
4940.000000	77.434	-11.2238
5000.000000	77.651	-8.1687
5080.000000	78.201	-4.5654
5150.000000	78.849	-2.4374
5220.000000	79.571	-1.4465
5300.000000	80.437	-1.5943
5380.000000	81.352	-2.9529
5450.000000	82.197	-5.3792
5520.000000	83.009	-9.5766
5600.000000	83.715	-16.9662
5700.000000	84.031	-28.7771
5800.000000	83.698	-40.3445
5900.000000	82.906	-49.4384
6000.000000	81.894	-55.7374
6080.000000	81.051	-59.2487
6150.000000	80.331	-61.6034
6220.000000	79.629	-63.5076
6300.000000	78.833	-65.2091
6400.000000	77.823	-66.5001
6500.000000	76.805	-66.6562
6600.000000	75.835	-65.7134
6700.000000	74.976	-64.0370
6800.000000	74.249	-62.0374
6900.000000	73.642	-59.9489
7000.000000	73.139	-57.9160
7100.000000	72.730	-56.1053
7200.000000	72.392	-54.6941
7300.000000	72.088	-53.7734
7400.000000	71.780	-53.2855
7500.000000	71.443	-53.0724
7620.000000	70.987	-52.9044
7750.000000	70.459	-52.5750
7880.000000	69.957	-52.2087
8000.000000	69.542	-52.2650
8120.000000	69.134	-53.0199
8250.000000	68.629	-54.5537
8380.000000	68.033	-56.5131
8500.000000	67.439	-58.6960
8620.000000	66.860	-61.8475
8750.000000	66.236	-67.5971
8850.000000	65.658	-74.2966
9000.000000	64.384	-87.7958
9120.000000	62.872	-100.5966
9250.000000	60.738	-116.0466
9380.000000	58.250	-134.0293
9500.000000	55.970	-153.4288
9620.000000	54.297	-174.2173
9750.000000	53.858	165.0063
9880.000000	54.710	149.2244
10000.000000	56.065	140.0806
10150.000000	58.106	134.8218
10300.000000	60.423	133.7313
10440.000000	62.791	133.9875
10600.000000	65.636	133.3932
10750.000000	68.251	129.8831
10900.000000	70.564	121.4001
11060.000000	72.391	105.2695
11200.000000	73.236	85.8345
11380.000000	73.175	58.2866
11500.000000	72.495	41.2825
11720.000000	70.366	14.7504
11800.000000	69.424	5.7238
12060.000000	66.125	-28.5876
12200.000000	64.303	-53.7627
12410.000000	61.707	-101.5478
12500.000000	60.727	-123.8549
12650.000000	59.327	-158.6760
12800.000000	58.160	174.7155
13150.000000	56.846	155.3862
13200.000000	56.983	156.1267
13400.000000	58.283	161.2921
13600.000000	60.104	165.4634
13800.000000	61.973	166.9803
14000.000000	63.843	166.3396
14300.000000	66.629	161.0986
14500.000000	68.225	153.0520
14750.000000	69.507	137.1349
15000.000000	69.787	118.1985
15250.000000	69.203	101.4995
15500.000000	68.159	89.1387
15750.000000	67.014	79.9412
16000.000000	65.904	72.5830
16250.000000	64.886	66.4385
16500.000000	64.041	60.7053
16750.000000	63.408	54.3472
17000.000000	62.936	46.3854
17250.000000	62.467	36.3660
17500.000000	61.814	25.0304
17750.000000	60.932	13.9067
18000.000000	60.007	3.5566
18250.000000	59.338	-7.4617
18500.000000	59.012	-21.4452
18750.000000	58.824	-39.7649
19000.000000	58.524	-62.1774
19250.000000	58.021	-87.1901
19500.000000	57.391	-112.4884
19750.000000	56.808	-134.4485
