* Measurement data measured by REW V5.20.13
* Source: EXCL: Headset (USB-C to 3.5mm Headphone Jack Adapter), MICROPHONE (Master Volume), 0, volume: 0.260
* Format: 256k Log Swept Sine, 1 sweep at -12.0 dBFS with no timing reference
* Dated: Oct 30, 2023 5:36:23 PM
* REW Settings:
*  C-weighting compensation: Off
*  Target level: 75.0 dB
* Note: 
* Measurement: Satyr1 Geekria Pads
* Smoothing: 1/12 octave
* Frequency Step: 1/48 octave
* Start Frequency: 20.000 Hz
*
* Freq(Hz)	SPL(dB)	Phase(degrees)
20.000000	70.065	166.5952
20.299999	70.309	164.6027
20.600000	70.554	162.6012
20.900000	70.792	160.5920
21.200001	71.016	158.6167
21.400000	71.158	157.3484
21.799999	71.432	154.9767
22.000000	71.569	153.8761
22.400000	71.851	151.8011
22.700001	72.070	150.2861
23.000000	72.290	148.7497
23.299999	72.503	147.1633
23.600000	72.702	145.5283
24.000000	72.936	143.3231
24.299999	73.088	141.7017
24.700001	73.263	139.6440
25.000000	73.381	138.1960
25.400000	73.528	136.3833
25.799999	73.670	134.6648
26.200001	73.810	132.9923
26.500000	73.912	131.7487
26.900000	74.045	130.0983
27.200001	74.141	128.8694
27.600000	74.270	127.2463
28.000000	74.402	125.6287
28.500000	74.574	123.5654
29.000000	74.745	121.4075
29.500000	74.904	119.1866
30.000000	75.050	117.0179
30.400000	75.167	115.3717
30.700001	75.261	114.1759
31.100000	75.397	112.5803
31.500000	75.537	110.9242
32.000000	75.698	108.7679
32.500000	75.827	106.6485
33.000000	75.938	104.7395
33.500000	76.057	103.0674
34.000000	76.200	101.4847
34.500000	76.355	99.8311
35.000000	76.501	98.0711
35.500000	76.625	96.2815
36.000000	76.731	94.5440
36.500000	76.828	92.8781
37.000000	76.917	91.2670
37.500000	76.998	89.7097
38.200001	77.102	87.6466
38.700001	77.176	86.2442
39.500000	77.291	84.0412
40.000000	77.355	82.6822
40.599998	77.422	81.1052
41.200001	77.485	79.5892
41.799999	77.545	78.0865
42.500000	77.604	76.3047
43.099998	77.641	74.7751
43.700001	77.666	73.2720
44.400002	77.686	71.5476
45.000000	77.692	70.1005
45.500000	77.691	68.9492
46.200001	77.689	67.4733
46.799999	77.701	66.3319
47.500000	77.746	65.0398
48.200001	77.823	63.5866
48.700001	77.879	62.3513
49.400002	77.921	60.4009
50.000000	77.911	58.7603
50.799999	77.873	56.9559
51.500000	77.881	55.6205
52.200001	77.931	54.1510
53.000000	77.983	52.2346
53.799999	78.008	50.4323
54.500000	78.032	49.1268
55.200001	78.066	48.0596
56.000000	78.112	47.1635
57.000000	78.187	46.6042
58.000000	78.317	46.6028
59.000000	78.554	46.4124
60.000000	78.754	44.6894
60.799999	78.714	42.4886
61.500000	78.536	40.7737
62.200001	78.310	39.5093
63.000000	78.077	38.3649
64.000000	77.865	36.9664
65.000000	77.740	35.4686
66.000000	77.684	33.9283
67.000000	77.671	32.4716
68.000000	77.674	31.1705
69.000000	77.665	30.0630
70.000000	77.638	29.0978
71.000000	77.587	28.1279
72.000000	77.506	27.0482
73.000000	77.399	25.8470
74.000000	77.270	24.5782
75.000000	77.131	23.3397
76.199997	76.957	22.0188
77.500000	76.753	20.9938
78.800003	76.546	20.5908
80.000000	76.377	20.7164
81.199997	76.251	21.1339
82.500000	76.179	21.6855
83.800003	76.177	22.1339
85.000000	76.229	22.3218
86.199997	76.308	22.2213
87.500000	76.392	21.8212
88.500000	76.445	21.3734
90.000000	76.504	20.5490
91.199997	76.534	19.8011
92.500000	76.552	18.9655
93.800003	76.557	18.1832
95.000000	76.558	17.5491
96.199997	76.556	16.9869
97.500000	76.553	16.4070
98.800003	76.546	15.8055
100.000000	76.537	15.2250
101.500000	76.528	14.4807
103.000000	76.523	13.7222
104.400002	76.513	13.0302
106.000000	76.493	12.2741
107.500000	76.466	11.5110
109.000000	76.433	10.5930
110.599998	76.392	9.4326
112.000000	76.349	8.3681
113.800003	76.279	7.1895
115.000000	76.213	6.6578
117.199997	76.048	6.3962
118.000000	75.985	6.4958
120.599998	75.824	6.7502
122.000000	75.749	6.5471
124.099998	75.622	6.1545
125.000000	75.572	6.0573
126.500000	75.502	5.9758
128.000000	75.447	5.9025
131.500000	75.358	5.2957
132.000000	75.349	5.1661
134.000000	75.327	4.6665
136.000000	75.318	4.2831
138.000000	75.303	3.9986
140.000000	75.273	3.6691
143.000000	75.198	2.9791
145.000000	75.137	2.5839
147.500000	75.063	2.2849
150.000000	74.990	2.0135
152.500000	74.910	1.6986
155.000000	74.815	1.5577
157.500000	74.719	1.8106
160.000000	74.653	2.2935
162.500000	74.631	2.5950
165.000000	74.630	2.5448
167.500000	74.627	2.2609
170.000000	74.613	1.9515
172.500000	74.598	1.7685
175.000000	74.597	1.7418
177.500000	74.607	1.7872
180.000000	74.609	1.7772
182.500000	74.589	1.6313
185.000000	74.552	1.3962
187.500000	74.510	1.2358
190.000000	74.468	1.2662
192.500000	74.431	1.3999
195.000000	74.416	1.3854
197.500000	74.420	1.0853
200.000000	74.419	0.6636
203.000000	74.389	0.2724
206.000000	74.338	0.0759
209.000000	74.289	-0.0367
212.000000	74.244	-0.1512
214.000000	74.213	-0.2108
218.000000	74.155	-0.2336
220.000000	74.127	-0.2129
224.000000	74.073	-0.1829
227.000000	74.034	-0.1917
230.000000	73.992	-0.2286
233.000000	73.937	-0.3259
236.000000	73.860	-0.4803
240.000000	73.742	-0.5363
243.000000	73.681	-0.3084
247.000000	73.651	0.2239
250.000000	73.650	0.6235
254.000000	73.663	1.0223
258.000000	73.689	1.2945
262.000000	73.732	1.5153
265.000000	73.772	1.6743
269.000000	73.800	1.8888
272.000000	73.790	2.0345
276.000000	73.763	2.1760
280.000000	73.751	2.2665
285.000000	73.758	2.3767
290.000000	73.767	2.5320
295.000000	73.756	2.6721
300.000000	73.730	2.7370
304.000000	73.719	2.7124
307.000000	73.715	2.6954
311.000000	73.708	2.7640
315.000000	73.698	2.9655
320.000000	73.687	3.2833
325.000000	73.685	3.4904
330.000000	73.697	3.5967
335.000000	73.716	3.6939
340.000000	73.733	3.8057
345.000000	73.738	3.9270
350.000000	73.731	4.1112
355.000000	73.714	4.3713
360.000000	73.690	4.6284
365.000000	73.672	4.8293
370.000000	73.664	5.0287
375.000000	73.656	5.2827
382.000000	73.657	5.7028
387.000000	73.679	5.9717
395.000000	73.744	6.2349
400.000000	73.779	6.4042
406.000000	73.803	6.6912
412.000000	73.816	6.9143
418.000000	73.834	7.0294
425.000000	73.864	7.2325
431.000000	73.890	7.4649
437.000000	73.913	7.7298
444.000000	73.945	8.1269
450.000000	73.982	8.4504
455.000000	74.018	8.6410
462.000000	74.072	8.7996
468.000000	74.117	8.9301
475.000000	74.168	9.1407
482.000000	74.224	9.3059
487.000000	74.268	9.3569
494.000000	74.330	9.3903
500.000000	74.373	9.4267
508.000000	74.411	9.4806
515.000000	74.444	9.5044
522.000000	74.484	9.5154
530.000000	74.531	9.5023
538.000000	74.575	9.4729
545.000000	74.609	9.4677
552.000000	74.638	9.5082
560.000000	74.669	9.6071
570.000000	74.706	9.7625
580.000000	74.754	9.9612
590.000000	74.803	10.1989
600.000000	74.844	10.4127
608.000000	74.876	10.5350
615.000000	74.909	10.6185
622.000000	74.950	10.6769
630.000000	75.001	10.6892
640.000000	75.062	10.6365
650.000000	75.113	10.5789
660.000000	75.150	10.5552
670.000000	75.180	10.5417
680.000000	75.209	10.5090
690.000000	75.245	10.4545
700.000000	75.284	10.3648
710.000000	75.312	10.1994
720.000000	75.319	9.9628
730.000000	75.299	9.7692
740.000000	75.253	9.7941
750.000000	75.201	10.1915
762.000000	75.182	11.0858
775.000000	75.239	12.0229
788.000000	75.325	12.5696
800.000000	75.398	12.8746
812.000000	75.459	13.1973
825.000000	75.530	13.6618
838.000000	75.628	14.1838
850.000000	75.747	14.5836
862.000000	75.880	14.7762
875.000000	76.013	14.7347
885.000000	76.101	14.5853
900.000000	76.209	14.2996
912.000000	76.280	14.0824
925.000000	76.346	13.8588
938.000000	76.407	13.6045
950.000000	76.464	13.2866
962.000000	76.512	12.8437
975.000000	76.536	12.2294
988.000000	76.504	11.5807
1000.000000	76.404	11.1746
1015.000000	76.198	11.4666
1030.000000	76.021	13.0179
1044.000000	76.015	15.1046
1060.000000	76.200	17.1208
1075.000000	76.445	18.1688
1090.000000	76.677	18.5726
1106.000000	76.892	18.6439
1120.000000	77.063	18.5565
1138.000000	77.260	18.2871
1150.000000	77.373	18.0334
1172.000000	77.543	17.5162
1180.000000	77.594	17.3421
1206.000000	77.747	16.8487
1220.000000	77.824	16.5754
1241.000000	77.928	16.1147
1250.000000	77.965	15.8979
1265.000000	78.010	15.5439
1280.000000	78.036	15.2906
1315.000000	78.111	15.2324
1320.000000	78.128	15.2368
1340.000000	78.202	15.1888
1360.000000	78.273	15.0642
1380.000000	78.338	14.9171
1400.000000	78.399	14.7629
1430.000000	78.478	14.5306
1450.000000	78.519	14.4097
1475.000000	78.563	14.3655
1500.000000	78.614	14.4205
1525.000000	78.676	14.5072
1550.000000	78.746	14.5325
1575.000000	78.807	14.4849
1600.000000	78.853	14.4761
1625.000000	78.896	14.5664
1650.000000	78.941	14.7237
1675.000000	78.992	14.9157
1700.000000	79.049	15.0865
1725.000000	79.103	15.2164
1750.000000	79.148	15.3676
1775.000000	79.184	15.6182
1800.000000	79.225	16.0131
1825.000000	79.292	16.4783
1850.000000	79.385	16.8562
1875.000000	79.483	17.0594
1900.000000	79.571	17.1185
1925.000000	79.646	17.0551
1950.000000	79.694	16.8528
1975.000000	79.693	16.5684
2000.000000	79.625	16.3753
2030.000000	79.439	16.7234
2060.000000	79.193	18.4124
2090.000000	79.061	21.6608
2120.000000	79.204	25.5933
2140.000000	79.448	27.9646
2180.000000	80.102	31.2077
2200.000000	80.438	32.0881
2240.000000	81.051	32.8883
2270.000000	81.451	33.0338
2300.000000	81.814	33.0325
2330.000000	82.158	32.9948
2360.000000	82.499	32.9045
2400.000000	82.946	32.6159
2430.000000	83.269	32.2594
2470.000000	83.677	31.6469
2500.000000	83.966	31.1498
2540.000000	84.341	30.4998
2580.000000	84.717	29.8588
2620.000000	85.101	29.2206
2650.000000	85.405	28.7601
2690.000000	85.850	28.0844
2720.000000	86.211	27.3680
2760.000000	86.691	25.9608
2800.000000	87.139	24.1660
2850.000000	87.680	21.6776
2900.000000	88.225	18.7016
2950.000000	88.715	14.9763
3000.000000	89.106	10.7102
3040.000000	89.346	7.0984
3070.000000	89.486	4.3326
3110.000000	89.622	0.6249
3150.000000	89.706	-3.0612
3200.000000	89.746	-7.6188
3250.000000	89.716	-12.1047
3300.000000	89.616	-16.4625
3350.000000	89.451	-20.6383
3400.000000	89.228	-24.6003
3450.000000	88.946	-28.3203
3500.000000	88.607	-31.7354
3550.000000	88.216	-34.7582
3600.000000	87.787	-37.3332
3650.000000	87.338	-39.4711
3700.000000	86.886	-41.2380
3750.000000	86.438	-42.7384
3820.000000	85.808	-44.5695
3870.000000	85.335	-45.6843
3950.000000	84.503	-46.8342
4000.000000	83.937	-46.9064
4060.000000	83.240	-46.1241
4120.000000	82.581	-44.4250
4180.000000	82.015	-42.0991
4250.000000	81.495	-39.0794
4310.000000	81.141	-36.4727
4370.000000	80.839	-33.8596
4440.000000	80.534	-30.6472
4500.000000	80.330	-27.7138
4550.000000	80.209	-25.2581
4620.000000	80.090	-21.9471
4680.000000	80.006	-19.1407
4750.000000	79.921	-15.6403
4820.000000	79.880	-11.6459
4870.000000	79.915	-8.4030
4940.000000	80.128	-3.4026
5000.000000	80.516	0.9668
5080.000000	81.317	6.0710
5150.000000	82.191	9.2111
5220.000000	83.113	10.7950
5300.000000	84.128	10.8123
5380.000000	85.087	9.4446
5450.000000	85.921	7.2945
5520.000000	86.727	3.8311
5600.000000	87.474	-2.3234
5700.000000	87.901	-12.5663
5800.000000	87.701	-22.9009
5900.000000	87.026	-30.9465
6000.000000	86.102	-36.0226
6080.000000	85.325	-38.2734
6150.000000	84.677	-39.3235
6220.000000	84.078	-39.8052
6300.000000	83.447	-39.8646
6400.000000	82.727	-39.3290
6500.000000	82.081	-38.2004
6600.000000	81.517	-36.6331
6700.000000	81.034	-34.8021
6800.000000	80.615	-32.7640
6900.000000	80.260	-30.4735
7000.000000	79.989	-27.9670
7100.000000	79.821	-25.4274
7200.000000	79.757	-23.1016
7300.000000	79.772	-21.1813
7400.000000	79.837	-19.7402
7500.000000	79.931	-18.7678
7620.000000	80.069	-18.1686
7750.000000	80.254	-18.2450
7880.000000	80.473	-19.3794
8000.000000	80.655	-21.7338
8120.000000	80.738	-25.5047
8250.000000	80.617	-31.0144
8380.000000	80.170	-37.2416
8500.000000	79.420	-42.4201
8620.000000	78.379	-45.9867
8750.000000	77.031	-47.4879
8850.000000	75.912	-46.9132
9000.000000	74.233	-43.3558
9120.000000	73.035	-38.6739
9250.000000	72.049	-32.9560
9380.000000	71.410	-27.8846
9500.000000	70.998	-24.2722
9620.000000	70.636	-21.5197
9750.000000	70.247	-19.2998
9880.000000	69.822	-17.8869
10000.000000	69.336	-17.1641
10150.000000	68.507	-16.2151
10300.000000	67.383	-13.7156
10440.000000	66.123	-8.6280
10600.000000	64.691	1.2455
10750.000000	63.909	13.9979
10900.000000	64.410	28.2538
11060.000000	66.378	41.0120
11200.000000	68.520	45.8476
11380.000000	70.861	38.9465
11500.000000	71.889	25.9799
11720.000000	72.558	-9.1592
11800.000000	72.506	-23.5420
12060.000000	72.261	-70.0303
12200.000000	72.649	-93.7380
12410.000000	74.095	-127.0242
12500.000000	74.866	-140.5507
12650.000000	76.094	-162.4971
12800.000000	77.037	175.9500
13150.000000	77.394	130.3464
13200.000000	77.225	125.1202
13400.000000	76.148	109.0652
13600.000000	74.747	100.4619
13800.000000	73.488	97.0032
14000.000000	72.704	95.7188
14300.000000	72.435	92.7158
14500.000000	72.486	87.8506
14750.000000	72.215	78.8817
15000.000000	71.173	71.4835
15250.000000	69.514	71.4447
15500.000000	68.218	77.3176
15750.000000	68.044	82.3156
16000.000000	68.593	83.4730
16250.000000	69.449	81.1289
16500.000000	70.446	75.0330
16750.000000	71.346	64.1676
17000.000000	71.860	48.3462
17250.000000	71.770	29.2563
17500.000000	70.997	10.0734
17750.000000	69.639	-6.3286
18000.000000	67.969	-19.2389
18250.000000	66.383	-30.3644
18500.000000	65.236	-42.5817
18750.000000	64.575	-58.4733
19000.000000	64.108	-79.1271
19250.000000	63.507	-103.3706
19500.000000	62.691	-128.1538
19750.000000	61.855	-149.3866
