* Measurement data measured by REW V5.31.1
* Source: Frequency response averaged data
* Format: Averaged data produced from the rms magnitudes of R Senn HD500A, R Senn HD500A, R Senn HD500A
* Dated: Jun 30, 2024 12:08:00 PM
* REW Settings:
*  C-weighting compensation: Off
*  Target level: 75.0 dB
* Note: Averaged data produced from the rms magnitudes of R Senn HD500A, R Senn HD500A, R Senn HD500A
* Measurement: RMS Average R
* Smoothing: 1/12 octave
* Frequency Step: 1/48 octave
* Start Frequency: 20.000 Hz
*
* Freq(Hz)	SPL(dB)
20.000000	70.540
20.299999	70.796
20.600000	71.070
20.900000	71.351
21.200001	71.634
21.400000	71.822
21.799999	72.188
22.000000	72.362
22.400000	72.677
22.700001	72.871
23.000000	73.018
23.299999	73.118
23.600000	73.179
24.000000	73.231
24.299999	73.275
24.700001	73.370
25.000000	73.470
25.400000	73.612
25.799999	73.726
26.200001	73.790
26.500000	73.816
26.900000	73.854
27.200001	73.913
27.600000	74.047
28.000000	74.230
28.500000	74.467
29.000000	74.658
29.500000	74.797
30.000000	74.918
30.400000	75.018
30.700001	75.094
31.100000	75.190
31.500000	75.275
32.000000	75.365
32.500000	75.454
33.000000	75.556
33.500000	75.680
34.000000	75.822
34.500000	75.972
35.000000	76.117
35.500000	76.248
36.000000	76.360
36.500000	76.456
37.000000	76.545
37.500000	76.632
38.200001	76.751
38.700001	76.830
39.500000	76.952
40.000000	77.032
40.599998	77.138
41.200001	77.251
41.799999	77.364
42.500000	77.487
43.099998	77.580
43.700001	77.659
44.400002	77.734
45.000000	77.784
45.500000	77.816
46.200001	77.843
46.799999	77.849
47.500000	77.838
48.200001	77.809
48.700001	77.780
49.400002	77.737
50.000000	77.708
50.799999	77.691
51.500000	77.695
52.200001	77.707
53.000000	77.725
53.799999	77.746
54.500000	77.771
55.200001	77.806
56.000000	77.860
57.000000	77.950
58.000000	78.069
59.000000	78.216
60.000000	78.380
60.799999	78.510
61.500000	78.614
62.200001	78.705
63.000000	78.794
64.000000	78.886
65.000000	78.966
66.000000	79.047
67.000000	79.140
68.000000	79.247
69.000000	79.360
70.000000	79.471
71.000000	79.571
72.000000	79.658
73.000000	79.733
74.000000	79.801
75.000000	79.866
76.199997	79.943
77.500000	80.026
78.800003	80.101
80.000000	80.158
81.199997	80.203
82.500000	80.244
83.800003	80.284
85.000000	80.323
86.199997	80.366
87.500000	80.418
88.500000	80.458
90.000000	80.509
91.199997	80.538
92.500000	80.557
93.800003	80.573
95.000000	80.591
96.199997	80.615
97.500000	80.648
98.800003	80.680
100.000000	80.705
101.500000	80.727
103.000000	80.739
104.400002	80.746
106.000000	80.752
107.500000	80.762
109.000000	80.778
110.599998	80.799
112.000000	80.818
113.800003	80.837
115.000000	80.849
117.199997	80.872
118.000000	80.883
120.599998	80.924
122.000000	80.946
124.099998	80.972
125.000000	80.981
126.500000	80.992
128.000000	81.000
131.500000	81.014
132.000000	81.016
134.000000	81.022
136.000000	81.027
138.000000	81.031
140.000000	81.036
143.000000	81.047
145.000000	81.057
147.500000	81.068
150.000000	81.072
152.500000	81.069
155.000000	81.066
157.500000	81.065
160.000000	81.070
162.500000	81.077
165.000000	81.083
167.500000	81.084
170.000000	81.082
172.500000	81.080
175.000000	81.079
177.500000	81.076
180.000000	81.071
182.500000	81.065
185.000000	81.057
187.500000	81.047
190.000000	81.031
192.500000	81.010
195.000000	80.986
197.500000	80.965
200.000000	80.950
203.000000	80.942
206.000000	80.944
209.000000	80.950
212.000000	80.951
214.000000	80.947
218.000000	80.925
220.000000	80.912
224.000000	80.884
227.000000	80.866
230.000000	80.848
233.000000	80.832
236.000000	80.817
240.000000	80.800
243.000000	80.789
247.000000	80.773
250.000000	80.758
254.000000	80.740
258.000000	80.727
262.000000	80.720
265.000000	80.715
269.000000	80.706
272.000000	80.697
276.000000	80.680
280.000000	80.662
285.000000	80.638
290.000000	80.617
295.000000	80.598
300.000000	80.580
304.000000	80.566
307.000000	80.556
311.000000	80.541
315.000000	80.526
320.000000	80.506
325.000000	80.485
330.000000	80.464
335.000000	80.445
340.000000	80.426
345.000000	80.409
350.000000	80.392
355.000000	80.376
360.000000	80.360
365.000000	80.344
370.000000	80.328
375.000000	80.310
382.000000	80.275
387.000000	80.246
395.000000	80.197
400.000000	80.167
406.000000	80.133
412.000000	80.101
418.000000	80.070
425.000000	80.036
431.000000	80.009
437.000000	79.985
444.000000	79.963
450.000000	79.950
455.000000	79.941
462.000000	79.932
468.000000	79.927
475.000000	79.923
482.000000	79.918
487.000000	79.913
494.000000	79.906
500.000000	79.898
508.000000	79.890
515.000000	79.884
522.000000	79.881
530.000000	79.881
538.000000	79.884
545.000000	79.889
552.000000	79.895
560.000000	79.902
570.000000	79.909
580.000000	79.911
590.000000	79.909
600.000000	79.904
608.000000	79.899
615.000000	79.894
622.000000	79.888
630.000000	79.881
640.000000	79.871
650.000000	79.861
660.000000	79.851
670.000000	79.843
680.000000	79.836
690.000000	79.828
700.000000	79.818
710.000000	79.807
720.000000	79.794
730.000000	79.779
740.000000	79.763
750.000000	79.747
762.000000	79.730
775.000000	79.718
788.000000	79.719
800.000000	79.731
812.000000	79.751
825.000000	79.782
838.000000	79.824
850.000000	79.870
862.000000	79.921
875.000000	79.977
885.000000	80.018
900.000000	80.073
912.000000	80.110
925.000000	80.143
938.000000	80.171
950.000000	80.192
962.000000	80.211
975.000000	80.231
988.000000	80.251
1000.000000	80.270
1015.000000	80.295
1030.000000	80.321
1044.000000	80.346
1060.000000	80.377
1075.000000	80.407
1090.000000	80.441
1106.000000	80.480
1120.000000	80.518
1138.000000	80.571
1150.000000	80.609
1172.000000	80.684
1180.000000	80.713
1206.000000	80.806
1220.000000	80.855
1241.000000	80.927
1250.000000	80.957
1265.000000	81.004
1280.000000	81.048
1315.000000	81.133
1320.000000	81.143
1340.000000	81.179
1360.000000	81.213
1380.000000	81.247
1400.000000	81.289
1430.000000	81.369
1450.000000	81.432
1475.000000	81.516
1500.000000	81.603
1525.000000	81.683
1550.000000	81.749
1575.000000	81.796
1600.000000	81.826
1625.000000	81.846
1650.000000	81.862
1675.000000	81.884
1700.000000	81.914
1725.000000	81.959
1750.000000	82.020
1775.000000	82.100
1800.000000	82.198
1825.000000	82.304
1850.000000	82.411
1875.000000	82.509
1900.000000	82.598
1925.000000	82.686
1950.000000	82.784
1975.000000	82.906
2000.000000	83.058
2030.000000	83.286
2060.000000	83.556
2090.000000	83.859
2120.000000	84.184
2140.000000	84.409
2180.000000	84.885
2200.000000	85.140
2240.000000	85.689
2270.000000	86.135
2300.000000	86.598
2330.000000	87.064
2360.000000	87.517
2400.000000	88.085
2430.000000	88.484
2470.000000	88.993
2500.000000	89.366
2540.000000	89.859
2580.000000	90.351
2620.000000	90.842
2650.000000	91.212
2690.000000	91.708
2720.000000	92.085
2760.000000	92.591
2800.000000	93.099
2850.000000	93.725
2900.000000	94.328
2950.000000	94.899
3000.000000	95.433
3040.000000	95.829
3070.000000	96.104
3110.000000	96.440
3150.000000	96.738
3200.000000	97.057
3250.000000	97.315
3300.000000	97.515
3350.000000	97.656
3400.000000	97.738
3450.000000	97.761
3500.000000	97.721
3550.000000	97.617
3600.000000	97.451
3650.000000	97.225
3700.000000	96.941
3750.000000	96.601
3820.000000	96.018
3870.000000	95.519
3950.000000	94.569
4000.000000	93.889
4060.000000	93.004
4120.000000	92.071
4180.000000	91.121
4250.000000	90.030
4310.000000	89.133
4370.000000	88.287
4440.000000	87.372
4500.000000	86.654
4550.000000	86.104
4620.000000	85.417
4680.000000	84.915
4750.000000	84.445
4820.000000	84.104
4870.000000	83.935
4940.000000	83.786
5000.000000	83.722
5080.000000	83.702
5150.000000	83.719
5220.000000	83.742
5300.000000	83.737
5380.000000	83.662
5450.000000	83.525
5520.000000	83.329
5600.000000	83.064
5700.000000	82.741
5800.000000	82.499
5900.000000	82.364
6000.000000	82.316
6080.000000	82.321
6150.000000	82.353
6220.000000	82.410
6300.000000	82.506
6400.000000	82.667
6500.000000	82.854
6600.000000	83.044
6700.000000	83.221
6800.000000	83.385
6900.000000	83.539
7000.000000	83.681
7100.000000	83.803
7200.000000	83.902
7300.000000	83.977
7400.000000	84.035
7500.000000	84.077
7620.000000	84.103
7750.000000	84.079
7880.000000	83.964
8000.000000	83.733
8120.000000	83.317
8250.000000	82.574
8380.000000	81.478
8500.000000	80.200
8620.000000	78.834
8750.000000	77.567
8850.000000	76.945
9000.000000	76.643
9120.000000	76.708
9250.000000	76.751
9380.000000	76.548
9500.000000	76.081
9620.000000	75.392
9750.000000	74.533
9880.000000	73.735
10000.000000	73.180
10150.000000	72.776
10300.000000	72.610
10440.000000	72.575
10600.000000	72.662
10750.000000	72.910
10900.000000	73.312
11060.000000	73.769
11200.000000	74.029
11380.000000	73.994
11500.000000	73.719
11720.000000	72.949
11800.000000	72.728
12060.000000	72.987
12200.000000	73.784
12410.000000	75.319
12500.000000	75.967
12650.000000	76.934
12800.000000	77.711
13150.000000	78.626
13200.000000	78.644
13400.000000	78.429
13600.000000	77.772
13800.000000	76.756
14000.000000	75.553
14300.000000	74.044
14500.000000	73.762
14750.000000	74.497
15000.000000	76.027
15250.000000	77.709
15500.000000	79.108
15750.000000	80.025
16000.000000	80.454
16250.000000	80.542
16500.000000	80.527
16750.000000	80.593
17000.000000	80.692
17250.000000	80.584
17500.000000	80.053
17750.000000	79.041
18000.000000	77.660
18250.000000	76.194
18500.000000	75.096
18750.000000	74.742
19000.000000	75.056
19250.000000	75.650
19500.000000	76.205
19750.000000	76.585
20000.000000	76.769
