* Measurement data measured by REW V5.31.1
* Source: Frequency response averaged data
* Format: Averaged data produced from the rms magnitudes of L Senn HD500A, L Senn HD500A, L Senn HD500A
* Dated: Jun 30, 2024 12:07:48 PM
* REW Settings:
*  C-weighting compensation: Off
*  Target level: 75.0 dB
* Note: Averaged data produced from the rms magnitudes of L Senn HD500A, L Senn HD500A, L Senn HD500A
* Measurement: RMS Average L
* Smoothing: 1/12 octave
* Frequency Step: 1/48 octave
* Start Frequency: 20.000 Hz
*
* Freq(Hz)	SPL(dB)
20.000000	70.084
20.299999	70.295
20.600000	70.517
20.900000	70.747
21.200001	70.977
21.400000	71.126
21.799999	71.406
22.000000	71.535
22.400000	71.770
22.700001	71.929
23.000000	72.078
23.299999	72.217
23.600000	72.351
24.000000	72.524
24.299999	72.655
24.700001	72.833
25.000000	72.968
25.400000	73.143
25.799999	73.297
26.200001	73.426
26.500000	73.510
26.900000	73.621
27.200001	73.716
27.600000	73.870
28.000000	74.051
28.500000	74.285
29.000000	74.486
29.500000	74.634
30.000000	74.742
30.400000	74.819
30.700001	74.879
31.100000	74.968
31.500000	75.063
32.000000	75.181
32.500000	75.288
33.000000	75.376
33.500000	75.443
34.000000	75.487
34.500000	75.507
35.000000	75.510
35.500000	75.507
36.000000	75.515
36.500000	75.545
37.000000	75.602
37.500000	75.682
38.200001	75.820
38.700001	75.935
39.500000	76.145
40.000000	76.292
40.599998	76.479
41.200001	76.672
41.799999	76.864
42.500000	77.080
43.099998	77.256
43.700001	77.422
44.400002	77.601
45.000000	77.738
45.500000	77.839
46.200001	77.963
46.799999	78.054
47.500000	78.143
48.200001	78.209
48.700001	78.239
49.400002	78.261
50.000000	78.267
50.799999	78.267
51.500000	78.271
52.200001	78.287
53.000000	78.333
53.799999	78.414
54.500000	78.512
55.200001	78.631
56.000000	78.781
57.000000	78.979
58.000000	79.175
59.000000	79.364
60.000000	79.538
60.799999	79.665
61.500000	79.768
62.200001	79.865
63.000000	79.971
64.000000	80.093
65.000000	80.202
66.000000	80.302
67.000000	80.394
68.000000	80.480
69.000000	80.563
70.000000	80.643
71.000000	80.720
72.000000	80.793
73.000000	80.861
74.000000	80.923
75.000000	80.980
76.199997	81.044
77.500000	81.110
78.800003	81.172
80.000000	81.227
81.199997	81.281
82.500000	81.338
83.800003	81.395
85.000000	81.446
86.199997	81.496
87.500000	81.549
88.500000	81.588
90.000000	81.643
91.199997	81.681
92.500000	81.714
93.800003	81.739
95.000000	81.758
96.199997	81.774
97.500000	81.790
98.800003	81.804
100.000000	81.815
101.500000	81.828
103.000000	81.840
104.400002	81.849
106.000000	81.863
107.500000	81.884
109.000000	81.915
110.599998	81.959
112.000000	82.000
113.800003	82.048
115.000000	82.073
117.199997	82.100
118.000000	82.107
120.599998	82.139
122.000000	82.166
124.099998	82.215
125.000000	82.236
126.500000	82.268
128.000000	82.294
131.500000	82.331
132.000000	82.335
134.000000	82.353
136.000000	82.368
138.000000	82.374
140.000000	82.368
143.000000	82.350
145.000000	82.342
147.500000	82.344
150.000000	82.353
152.500000	82.361
155.000000	82.365
157.500000	82.366
160.000000	82.367
162.500000	82.366
165.000000	82.360
167.500000	82.350
170.000000	82.334
172.500000	82.313
175.000000	82.287
177.500000	82.256
180.000000	82.222
182.500000	82.189
185.000000	82.160
187.500000	82.137
190.000000	82.116
192.500000	82.097
195.000000	82.077
197.500000	82.059
200.000000	82.042
203.000000	82.024
206.000000	82.010
209.000000	81.998
212.000000	81.989
214.000000	81.984
218.000000	81.974
220.000000	81.969
224.000000	81.956
227.000000	81.940
230.000000	81.919
233.000000	81.895
236.000000	81.870
240.000000	81.839
243.000000	81.820
247.000000	81.799
250.000000	81.785
254.000000	81.767
258.000000	81.746
262.000000	81.718
265.000000	81.693
269.000000	81.655
272.000000	81.626
276.000000	81.592
280.000000	81.568
285.000000	81.551
290.000000	81.540
295.000000	81.525
300.000000	81.501
304.000000	81.474
307.000000	81.448
311.000000	81.406
315.000000	81.361
320.000000	81.305
325.000000	81.255
330.000000	81.212
335.000000	81.175
340.000000	81.142
345.000000	81.112
350.000000	81.084
355.000000	81.060
360.000000	81.039
365.000000	81.019
370.000000	80.999
375.000000	80.979
382.000000	80.954
387.000000	80.939
395.000000	80.914
400.000000	80.896
406.000000	80.871
412.000000	80.843
418.000000	80.812
425.000000	80.772
431.000000	80.738
437.000000	80.704
444.000000	80.665
450.000000	80.632
455.000000	80.605
462.000000	80.566
468.000000	80.531
475.000000	80.490
482.000000	80.452
487.000000	80.429
494.000000	80.402
500.000000	80.386
508.000000	80.373
515.000000	80.368
522.000000	80.364
530.000000	80.357
538.000000	80.345
545.000000	80.332
552.000000	80.320
560.000000	80.310
570.000000	80.304
580.000000	80.301
590.000000	80.297
600.000000	80.287
608.000000	80.278
615.000000	80.270
622.000000	80.262
630.000000	80.253
640.000000	80.244
650.000000	80.236
660.000000	80.227
670.000000	80.218
680.000000	80.208
690.000000	80.197
700.000000	80.186
710.000000	80.174
720.000000	80.163
730.000000	80.153
740.000000	80.145
750.000000	80.139
762.000000	80.131
775.000000	80.117
788.000000	80.099
800.000000	80.082
812.000000	80.067
825.000000	80.055
838.000000	80.048
850.000000	80.048
862.000000	80.054
875.000000	80.068
885.000000	80.084
900.000000	80.115
912.000000	80.143
925.000000	80.171
938.000000	80.193
950.000000	80.211
962.000000	80.228
975.000000	80.250
988.000000	80.277
1000.000000	80.306
1015.000000	80.344
1030.000000	80.382
1044.000000	80.415
1060.000000	80.450
1075.000000	80.481
1090.000000	80.507
1106.000000	80.532
1120.000000	80.550
1138.000000	80.569
1150.000000	80.579
1172.000000	80.593
1180.000000	80.598
1206.000000	80.611
1220.000000	80.616
1241.000000	80.626
1250.000000	80.632
1265.000000	80.647
1280.000000	80.670
1315.000000	80.749
1320.000000	80.762
1340.000000	80.815
1360.000000	80.861
1380.000000	80.890
1400.000000	80.896
1430.000000	80.865
1450.000000	80.832
1475.000000	80.798
1500.000000	80.787
1525.000000	80.803
1550.000000	80.836
1575.000000	80.875
1600.000000	80.919
1625.000000	80.969
1650.000000	81.022
1675.000000	81.074
1700.000000	81.118
1725.000000	81.147
1750.000000	81.164
1775.000000	81.175
1800.000000	81.191
1825.000000	81.219
1850.000000	81.267
1875.000000	81.339
1900.000000	81.440
1925.000000	81.571
1950.000000	81.731
1975.000000	81.915
2000.000000	82.117
2030.000000	82.367
2060.000000	82.612
2090.000000	82.850
2120.000000	83.099
2140.000000	83.284
2180.000000	83.731
2200.000000	84.000
2240.000000	84.616
2270.000000	85.118
2300.000000	85.626
2330.000000	86.121
2360.000000	86.590
2400.000000	87.167
2430.000000	87.568
2470.000000	88.079
2500.000000	88.458
2540.000000	88.976
2580.000000	89.510
2620.000000	90.043
2650.000000	90.428
2690.000000	90.915
2720.000000	91.262
2760.000000	91.705
2800.000000	92.138
2850.000000	92.670
2900.000000	93.189
2950.000000	93.684
3000.000000	94.139
3040.000000	94.465
3070.000000	94.684
3110.000000	94.945
3150.000000	95.173
3200.000000	95.418
3250.000000	95.618
3300.000000	95.771
3350.000000	95.870
3400.000000	95.910
3450.000000	95.892
3500.000000	95.819
3550.000000	95.697
3600.000000	95.529
3650.000000	95.318
3700.000000	95.063
3750.000000	94.768
3820.000000	94.294
3870.000000	93.916
3950.000000	93.259
4000.000000	92.817
4060.000000	92.252
4120.000000	91.632
4180.000000	90.942
4250.000000	90.030
4310.000000	89.164
4370.000000	88.244
4440.000000	87.153
4500.000000	86.251
4550.000000	85.552
4620.000000	84.679
4680.000000	84.037
4750.000000	83.406
4820.000000	82.885
4870.000000	82.573
4940.000000	82.210
5000.000000	81.966
5080.000000	81.730
5150.000000	81.595
5220.000000	81.502
5300.000000	81.404
5380.000000	81.260
5450.000000	81.058
5520.000000	80.771
5600.000000	80.348
5700.000000	79.759
5800.000000	79.277
5900.000000	79.096
6000.000000	79.295
6080.000000	79.685
6150.000000	80.134
6220.000000	80.637
6300.000000	81.229
6400.000000	81.945
6500.000000	82.602
6600.000000	83.198
6700.000000	83.743
6800.000000	84.241
6900.000000	84.677
7000.000000	85.013
7100.000000	85.210
7200.000000	85.241
7300.000000	85.107
7400.000000	84.838
7500.000000	84.489
7620.000000	84.073
7750.000000	83.774
7880.000000	83.749
8000.000000	83.983
8120.000000	84.387
8250.000000	84.858
8380.000000	85.178
8500.000000	85.199
8620.000000	84.877
8750.000000	84.125
8850.000000	83.292
9000.000000	81.759
9120.000000	80.428
9250.000000	79.050
9380.000000	77.868
9500.000000	76.991
9620.000000	76.271
9750.000000	75.566
9880.000000	74.838
10000.000000	74.108
10150.000000	73.140
10300.000000	72.197
10440.000000	71.424
10600.000000	70.760
10750.000000	70.448
10900.000000	70.529
11060.000000	71.057
11200.000000	71.767
11380.000000	72.761
11500.000000	73.359
11720.000000	74.223
11800.000000	74.470
12060.000000	75.154
12200.000000	75.493
12410.000000	75.950
12500.000000	76.109
12650.000000	76.303
12800.000000	76.388
13150.000000	76.104
13200.000000	76.009
13400.000000	75.505
13600.000000	74.860
13800.000000	74.151
14000.000000	73.438
14300.000000	72.458
14500.000000	72.025
14750.000000	72.049
15000.000000	72.803
15250.000000	73.964
15500.000000	75.155
15750.000000	76.250
16000.000000	77.337
16250.000000	78.533
16500.000000	79.810
16750.000000	80.977
17000.000000	81.803
17250.000000	82.110
17500.000000	81.810
17750.000000	80.908
18000.000000	79.489
18250.000000	77.710
18500.000000	75.807
18750.000000	74.139
19000.000000	73.091
19250.000000	72.769
19500.000000	72.902
19750.000000	73.148
20000.000000	73.305
