* Measurement data measured by REW V5.20.13
* Source: EXCL: Headset (USB-C to 3.5mm Headphone Jack Adapter), MICROPHONE (Master Volume), 0, volume: 0.260
* Format: 256k Log Swept Sine, 1 sweep at -12.0 dBFS with no timing reference
* Dated: Aug 31, 2023 5:58:54 PM
* REW Settings:
*  C-weighting compensation: Off
*  Target level: 75.0 dB
* Note: 
* Measurement: Skullcandy Hesh 2
* Smoothing: 1/12 octave
* Frequency Step: 1/48 octave
* Start Frequency: 20.000 Hz
*
* Freq(Hz)	SPL(dB)	Phase(degrees)
20.000000	80.229	160.1758
20.299999	80.411	158.0989
20.600000	80.590	156.0817
20.900000	80.769	154.0964
21.200001	80.947	152.1084
21.400000	81.062	150.7689
21.799999	81.282	148.0616
22.000000	81.384	146.7060
22.400000	81.570	144.0369
22.700001	81.699	142.1104
23.000000	81.826	140.2662
23.299999	81.955	138.4849
23.600000	82.089	136.7313
24.000000	82.271	134.3792
24.299999	82.403	132.5849
24.700001	82.563	130.1835
25.000000	82.670	128.4271
25.400000	82.803	126.2010
25.799999	82.939	124.0939
26.200001	83.084	122.0003
26.500000	83.192	120.3653
26.900000	83.314	118.0688
27.200001	83.378	116.3097
27.600000	83.421	114.0525
28.000000	83.426	112.0614
28.500000	83.425	110.0208
29.000000	83.456	108.2498
29.500000	83.509	106.4196
30.000000	83.539	104.4242
30.400000	83.524	102.8456
30.700001	83.488	101.7755
31.100000	83.422	100.6022
31.500000	83.351	99.7563
32.000000	83.283	99.1366
32.500000	83.265	98.9227
33.000000	83.323	98.9766
33.500000	83.472	99.0868
34.000000	83.703	98.9684
34.500000	83.981	98.3978
35.000000	84.263	97.3221
35.500000	84.517	95.8404
36.000000	84.731	94.1100
36.500000	84.907	92.2583
37.000000	85.053	90.3604
37.500000	85.176	88.4331
38.200001	85.316	85.6467
38.700001	85.389	83.5665
39.500000	85.445	80.1530
40.000000	85.444	78.0663
40.599998	85.416	75.6886
41.200001	85.373	73.4521
41.799999	85.320	71.3329
42.500000	85.243	69.0249
43.099998	85.164	67.2394
43.700001	85.079	65.6761
44.400002	84.981	64.1604
45.000000	84.914	63.0865
45.500000	84.876	62.2484
46.200001	84.836	60.9737
46.799999	84.782	59.7259
47.500000	84.665	58.2370
48.200001	84.488	56.9085
48.700001	84.329	56.1187
49.400002	84.066	55.3237
50.000000	83.811	55.0634
50.799999	83.467	55.4778
51.500000	83.214	56.5328
52.200001	83.048	58.1039
53.000000	83.005	60.2968
53.799999	83.140	62.5926
54.500000	83.407	64.3625
55.200001	83.778	65.5126
56.000000	84.227	65.7027
57.000000	84.672	64.5447
58.000000	84.962	62.8718
59.000000	85.177	61.2933
60.000000	85.391	59.7475
60.799999	85.567	58.2132
61.500000	85.685	56.5458
62.200001	85.739	54.7738
63.000000	85.735	52.9956
64.000000	85.707	51.3214
65.000000	85.698	49.8956
66.000000	85.682	48.4538
67.000000	85.634	47.0041
68.000000	85.540	45.6317
69.000000	85.398	44.5307
70.000000	85.223	43.9374
71.000000	85.055	44.0207
72.000000	84.947	44.7516
73.000000	84.938	45.8373
74.000000	85.023	46.8779
75.000000	85.163	47.5929
76.199997	85.351	47.9053
77.500000	85.545	47.6124
78.800003	85.713	46.8204
80.000000	85.850	45.9229
81.199997	85.992	45.0721
82.500000	86.163	44.1848
83.800003	86.318	43.2435
85.000000	86.422	42.4168
86.199997	86.500	41.6913
87.500000	86.577	40.8968
88.500000	86.635	40.1967
90.000000	86.715	39.0126
91.199997	86.770	38.0299
92.500000	86.822	37.0165
93.800003	86.869	36.0450
95.000000	86.902	35.1744
96.199997	86.931	34.3789
97.500000	86.979	33.6099
98.800003	87.058	32.8651
100.000000	87.151	32.1208
101.500000	87.265	31.1055
103.000000	87.353	30.0741
104.400002	87.411	29.1302
106.000000	87.460	28.0228
107.500000	87.493	26.9677
109.000000	87.521	25.9714
110.599998	87.550	24.9877
112.000000	87.574	24.1017
113.800003	87.593	22.7985
115.000000	87.600	21.8084
117.199997	87.620	19.8113
118.000000	87.628	19.0744
120.599998	87.624	17.0067
122.000000	87.604	16.2090
124.099998	87.568	15.1908
125.000000	87.552	14.7339
126.500000	87.523	13.9025
128.000000	87.491	13.0085
131.500000	87.381	11.0569
132.000000	87.361	10.8205
134.000000	87.273	9.9879
136.000000	87.187	9.2871
138.000000	87.101	8.6536
140.000000	86.991	8.1578
143.000000	86.811	7.9340
145.000000	86.751	7.9389
147.500000	86.772	7.6601
150.000000	86.838	6.9418
152.500000	86.888	6.0109
155.000000	86.904	5.0283
157.500000	86.881	3.9589
160.000000	86.807	2.8430
162.500000	86.692	1.8961
165.000000	86.574	1.2122
167.500000	86.474	0.5903
170.000000	86.375	-0.1127
172.500000	86.272	-0.8126
175.000000	86.168	-1.3317
177.500000	86.078	-1.5672
180.000000	86.011	-1.6138
182.500000	85.953	-1.5742
185.000000	85.895	-1.4976
187.500000	85.843	-1.4395
190.000000	85.812	-1.4491
192.500000	85.804	-1.5383
195.000000	85.806	-1.6605
197.500000	85.812	-1.7985
200.000000	85.822	-1.9923
203.000000	85.830	-2.3065
206.000000	85.831	-2.6559
209.000000	85.827	-3.0198
212.000000	85.822	-3.4190
214.000000	85.817	-3.7104
218.000000	85.794	-4.3298
220.000000	85.773	-4.6447
224.000000	85.716	-5.2755
227.000000	85.668	-5.7382
230.000000	85.617	-6.1609
233.000000	85.560	-6.5153
236.000000	85.497	-6.7865
240.000000	85.413	-7.0098
243.000000	85.359	-7.0719
247.000000	85.301	-7.0433
250.000000	85.265	-6.9893
254.000000	85.226	-6.9525
258.000000	85.193	-6.9580
262.000000	85.168	-6.9645
265.000000	85.159	-6.9648
269.000000	85.157	-6.9916
272.000000	85.159	-7.0594
276.000000	85.159	-7.2142
280.000000	85.153	-7.3918
285.000000	85.144	-7.5740
290.000000	85.154	-7.7150
295.000000	85.182	-7.9255
300.000000	85.193	-8.2365
304.000000	85.181	-8.5033
307.000000	85.165	-8.6980
311.000000	85.138	-8.9456
315.000000	85.109	-9.1913
320.000000	85.071	-9.5089
325.000000	85.036	-9.8082
330.000000	85.001	-10.0478
335.000000	84.962	-10.2172
340.000000	84.920	-10.3256
345.000000	84.873	-10.3868
350.000000	84.827	-10.4142
355.000000	84.786	-10.4053
360.000000	84.747	-10.3479
365.000000	84.708	-10.2325
370.000000	84.672	-10.0540
375.000000	84.641	-9.8137
382.000000	84.612	-9.3928
387.000000	84.603	-9.0542
395.000000	84.611	-8.4825
400.000000	84.630	-8.1180
406.000000	84.668	-7.6946
412.000000	84.721	-7.3145
418.000000	84.783	-6.9894
425.000000	84.864	-6.6710
431.000000	84.937	-6.4525
437.000000	85.013	-6.2910
444.000000	85.103	-6.1573
450.000000	85.181	-6.0643
455.000000	85.246	-5.9908
462.000000	85.341	-5.8918
468.000000	85.428	-5.8182
475.000000	85.536	-5.7571
482.000000	85.651	-5.7303
487.000000	85.736	-5.7357
494.000000	85.860	-5.7814
500.000000	85.971	-5.8588
508.000000	86.123	-6.0247
515.000000	86.260	-6.2299
522.000000	86.398	-6.4906
530.000000	86.558	-6.8607
538.000000	86.719	-7.3091
545.000000	86.862	-7.7605
552.000000	87.003	-8.2684
560.000000	87.162	-8.9254
570.000000	87.352	-9.8616
580.000000	87.530	-10.9020
590.000000	87.692	-12.0021
600.000000	87.844	-13.1161
608.000000	87.961	-14.0039
615.000000	88.062	-14.7841
622.000000	88.164	-15.5774
630.000000	88.280	-16.5108
640.000000	88.422	-17.7271
650.000000	88.557	-18.9905
660.000000	88.687	-20.2776
670.000000	88.812	-21.5620
680.000000	88.937	-22.8289
690.000000	89.070	-24.0867
700.000000	89.217	-25.3706
710.000000	89.381	-26.7433
720.000000	89.558	-28.2765
730.000000	89.740	-30.0249
740.000000	89.915	-32.0151
750.000000	90.073	-34.2447
762.000000	90.229	-37.1927
775.000000	90.346	-40.6226
788.000000	90.406	-44.1868
800.000000	90.412	-47.5302
812.000000	90.374	-50.8856
825.000000	90.284	-54.4923
838.000000	90.144	-58.0169
850.000000	89.972	-61.1462
862.000000	89.765	-64.1196
875.000000	89.510	-67.1467
885.000000	89.295	-69.3391
900.000000	88.950	-72.4108
912.000000	88.654	-74.6814
925.000000	88.318	-76.9563
938.000000	87.966	-79.0440
950.000000	87.628	-80.8020
962.000000	87.278	-82.3824
975.000000	86.883	-83.8540
988.000000	86.475	-85.0186
1000.000000	86.098	-85.7920
1015.000000	85.641	-86.3641
1030.000000	85.219	-86.5405
1044.000000	84.872	-86.4094
1060.000000	84.551	-86.0518
1075.000000	84.336	-85.7384
1090.000000	84.193	-85.6933
1106.000000	84.083	-86.1005
1120.000000	83.988	-86.8028
1138.000000	83.847	-87.9704
1150.000000	83.750	-88.8583
1172.000000	83.585	-90.9801
1180.000000	83.517	-92.0103
1206.000000	83.140	-96.1546
1220.000000	82.787	-98.3521
1241.000000	82.078	-100.6156
1250.000000	81.734	-101.0668
1265.000000	81.152	-101.1119
1280.000000	80.603	-100.3898
1315.000000	79.644	-96.9135
1320.000000	79.552	-96.3246
1340.000000	79.304	-93.9506
1360.000000	79.262	-91.8366
1380.000000	79.410	-90.5699
1400.000000	79.667	-90.7050
1430.000000	80.011	-93.8945
1450.000000	80.092	-97.6922
1475.000000	79.949	-103.5483
1500.000000	79.512	-109.7560
1525.000000	78.793	-115.4771
1550.000000	77.838	-120.0889
1575.000000	76.738	-123.3600
1600.000000	75.599	-125.6434
1625.000000	74.471	-127.5748
1650.000000	73.343	-129.6325
1675.000000	72.213	-132.6150
1700.000000	71.042	-137.9734
1725.000000	69.615	-146.6895
1750.000000	67.658	-159.2690
1775.000000	65.059	-178.8956
1800.000000	62.003	148.2750
1825.000000	59.489	103.0181
1850.000000	59.382	60.5452
1875.000000	61.128	33.5037
1900.000000	63.048	20.3286
1925.000000	64.651	14.6157
1950.000000	65.927	12.0212
1975.000000	66.936	10.6226
2000.000000	67.738	9.7582
2030.000000	68.489	9.1824
2060.000000	69.064	9.1287
2090.000000	69.524	9.7480
2120.000000	69.943	11.1138
2140.000000	70.236	12.3742
2180.000000	70.918	15.2801
2200.000000	71.311	16.6761
2240.000000	72.153	18.8305
2270.000000	72.780	19.6906
2300.000000	73.360	19.9478
2330.000000	73.880	19.7798
2360.000000	74.343	19.3435
2400.000000	74.878	18.4352
2430.000000	75.207	17.5015
2470.000000	75.505	16.0493
2500.000000	75.598	15.1454
2540.000000	75.568	15.0974
2580.000000	75.552	17.2628
2620.000000	75.863	21.1187
2650.000000	76.368	23.8642
2690.000000	77.201	25.7679
2720.000000	77.773	25.6202
2760.000000	78.327	24.1130
2800.000000	78.658	22.4437
2850.000000	78.910	21.5073
2900.000000	79.208	22.2546
2950.000000	79.760	23.9386
3000.000000	80.549	24.8597
3040.000000	81.200	24.3409
3070.000000	81.642	23.3232
3110.000000	82.154	21.4775
3150.000000	82.590	19.3480
3200.000000	83.035	16.5112
3250.000000	83.374	13.7521
3300.000000	83.642	11.4358
3350.000000	83.914	9.7749
3400.000000	84.278	8.5972
3450.000000	84.779	7.3406
3500.000000	85.385	5.3171
3550.000000	86.009	1.9650
3600.000000	86.522	-2.9987
3650.000000	86.779	-9.1895
3700.000000	86.704	-15.2341
3750.000000	86.395	-19.6263
3820.000000	85.985	-22.6996
3870.000000	85.908	-23.9932
3950.000000	86.086	-27.0724
4000.000000	86.221	-30.1102
4060.000000	86.286	-34.5582
4120.000000	86.219	-39.3818
4180.000000	86.023	-44.2375
4250.000000	85.635	-49.6029
4310.000000	85.174	-53.6132
4370.000000	84.625	-56.8340
4440.000000	83.935	-59.5537
4500.000000	83.340	-61.1239
4550.000000	82.859	-61.9964
4620.000000	82.223	-62.6968
4680.000000	81.715	-62.9069
4750.000000	81.168	-62.7048
4820.000000	80.705	-62.1147
4870.000000	80.449	-61.7150
4940.000000	80.167	-61.6953
5000.000000	79.911	-62.3111
5080.000000	79.389	-63.1632
5150.000000	78.745	-62.4771
5220.000000	78.102	-59.7183
5300.000000	77.678	-54.8838
5380.000000	77.748	-50.0394
5450.000000	78.145	-46.9652
5520.000000	78.712	-45.6037
5600.000000	79.390	-46.5155
5700.000000	80.033	-51.1638
5800.000000	80.266	-58.3499
5900.000000	80.065	-66.0695
6000.000000	79.567	-73.0806
6080.000000	79.061	-78.3392
6150.000000	78.557	-83.0525
6220.000000	77.964	-87.9789
6300.000000	77.117	-93.5947
6400.000000	75.729	-99.5217
6500.000000	73.943	-102.5253
6600.000000	71.815	-101.0013
6700.000000	69.553	-94.6859
6800.000000	67.546	-85.5510
6900.000000	66.083	-76.2216
7000.000000	65.077	-67.2933
7100.000000	64.442	-58.2128
7200.000000	64.294	-49.6044
7300.000000	64.632	-43.2870
7400.000000	65.192	-41.1310
7500.000000	65.625	-44.0466
7620.000000	65.679	-53.8444
7750.000000	65.135	-71.3811
7880.000000	64.352	-96.6595
8000.000000	64.220	-126.9178
8120.000000	65.362	-160.5023
8250.000000	67.581	165.4224
8380.000000	69.805	137.0527
8500.000000	71.385	115.4371
8620.000000	72.389	97.4305
8750.000000	72.892	82.2131
8850.000000	73.002	73.8883
9000.000000	73.082	66.4036
9120.000000	73.317	62.9258
9250.000000	73.738	59.3844
9380.000000	74.152	54.9871
9500.000000	74.426	50.2412
9620.000000	74.584	45.0598
9750.000000	74.605	38.9065
9880.000000	74.382	32.3961
10000.000000	73.870	27.0566
10150.000000	72.815	23.4019
10300.000000	71.534	24.5023
10440.000000	70.553	29.2407
10600.000000	70.246	36.7281
10750.000000	70.943	42.9097
10900.000000	72.217	45.2499
11060.000000	73.522	41.0157
11200.000000	74.196	31.6700
11380.000000	74.158	15.6929
11500.000000	73.588	5.2915
11720.000000	71.742	-10.1423
11800.000000	70.925	-14.9126
12060.000000	68.233	-32.4453
12200.000000	67.047	-46.1896
12410.000000	66.590	-75.6460
12500.000000	67.173	-91.4618
12650.000000	68.967	-120.7773
12800.000000	71.081	-151.7443
13150.000000	74.719	139.3811
13200.000000	75.021	130.4991
13400.000000	75.725	98.0997
13600.000000	75.734	70.5094
13800.000000	75.162	47.0140
14000.000000	74.089	27.0901
14300.000000	71.717	2.9976
14500.000000	69.749	-10.3866
14750.000000	66.963	-26.9805
15000.000000	63.873	-49.2284
15250.000000	60.500	-85.3953
15500.000000	57.153	-137.7421
15750.000000	55.304	166.7900
16000.000000	55.645	125.1050
16250.000000	56.538	100.1646
16500.000000	57.194	86.7155
16750.000000	57.862	80.3577
17000.000000	59.011	76.8423
17250.000000	60.484	70.3970
17500.000000	61.655	57.1046
17750.000000	62.095	37.9053
18000.000000	61.661	17.2404
18250.000000	60.434	-0.1796
18500.000000	58.716	-12.6971
18750.000000	56.969	-22.5742
19000.000000	55.489	-32.5959
19250.000000	54.248	-42.9614
19500.000000	53.249	-52.3969
19750.000000	52.662	-60.0149
