* Measurement data measured by REW V5.20.13
* Source: EXCL: Headset (USB-C to 3.5mm Headphone Jack Adapter), MICROPHONE (Master Volume), 0, volume: 0.260. Timing signal peak level -46.3 dBFS, measurement signal peak level -42.4 dBFS
* Format: 256k Log Swept Sine, 1 sweep at -12.0 dBFS using an acoustic timing reference
* Dated: Feb 16, 2024 6:45:39 PM
* REW Settings:
*  C-weighting compensation: Off
*  Target level: 75.0 dB
* Note: Delay -0.0226 ms (-7.7 mm, -0.3 in) using estimated IR delay relative to Acoustic reference played from SPEAKER L with no timing offset Clock adjustment: -51.8 ppm
* Measurement: YH5k XB500 Pads
* Smoothing: 1/12 octave
* Frequency Step: 1/48 octave
* Start Frequency: 20.000 Hz
*
* Freq(Hz)	SPL(dB)	Phase(degrees)
20.000000	61.430	173.1001
20.299999	61.709	170.5336
20.600000	61.911	168.1721
20.900000	62.058	166.1778
21.200001	62.181	164.6096
21.400000	62.265	163.7736
21.799999	62.462	162.3906
22.000000	62.577	161.7418
22.400000	62.826	160.3743
22.700001	63.014	159.2325
23.000000	63.195	158.0233
23.299999	63.372	156.7972
23.600000	63.552	155.5815
24.000000	63.811	153.9338
24.299999	64.022	152.5963
24.700001	64.310	150.5715
25.000000	64.515	148.8636
25.400000	64.756	146.4235
25.799999	64.955	143.9826
26.200001	65.127	141.7143
26.500000	65.251	140.1698
26.900000	65.427	138.2808
27.200001	65.572	136.9304
27.600000	65.777	135.1093
28.000000	65.982	133.1863
28.500000	66.206	130.6299
29.000000	66.374	128.0737
29.500000	66.490	125.7640
30.000000	66.594	123.8417
30.400000	66.698	122.5153
30.700001	66.795	121.5449
31.100000	66.944	120.1537
31.500000	67.098	118.5563
32.000000	67.264	116.2755
32.500000	67.378	113.8395
33.000000	67.441	111.4636
33.500000	67.466	109.2634
34.000000	67.467	107.2444
34.500000	67.442	105.3855
35.000000	67.380	103.7509
35.500000	67.280	102.5182
36.000000	67.168	101.8880
36.500000	67.096	101.9037
37.000000	67.118	102.3387
37.500000	67.254	102.7987
38.200001	67.583	102.8807
38.700001	67.861	102.3866
39.500000	68.310	100.7538
40.000000	68.571	99.3279
40.599998	68.850	97.3701
41.200001	69.092	95.3162
41.799999	69.305	93.2750
42.500000	69.519	90.9535
43.099998	69.667	89.0645
43.700001	69.784	87.3407
44.400002	69.893	85.5731
45.000000	69.975	84.2278
45.500000	70.041	83.1672
46.200001	70.132	81.6418
46.799999	70.198	80.1888
47.500000	70.241	78.3449
48.200001	70.248	76.5219
48.700001	70.247	75.2939
49.400002	70.256	73.6181
50.000000	70.268	72.1661
50.799999	70.278	70.2705
51.500000	70.281	68.7559
52.200001	70.286	67.3988
53.000000	70.298	65.9879
53.799999	70.312	64.6410
54.500000	70.324	63.4585
55.200001	70.336	62.2507
56.000000	70.361	60.7943
57.000000	70.428	58.7133
58.000000	70.524	56.0808
59.000000	70.538	53.0118
60.000000	70.416	50.9091
60.799999	70.361	50.5414
61.500000	70.432	50.6117
62.200001	70.572	50.4420
63.000000	70.724	49.7991
64.000000	70.829	48.6830
65.000000	70.844	47.5726
66.000000	70.812	46.5366
67.000000	70.769	45.4393
68.000000	70.729	44.1592
69.000000	70.690	42.7175
70.000000	70.649	41.2723
71.000000	70.615	39.9702
72.000000	70.595	38.8173
73.000000	70.580	37.7601
74.000000	70.558	36.7741
75.000000	70.527	35.8615
76.199997	70.488	34.8379
77.500000	70.455	33.7316
78.800003	70.431	32.6167
80.000000	70.416	31.6376
81.199997	70.407	30.7054
82.500000	70.395	29.7105
83.800003	70.370	28.7116
85.000000	70.335	27.7689
86.199997	70.292	26.7844
87.500000	70.242	25.6813
88.500000	70.206	24.8248
90.000000	70.161	23.5322
91.199997	70.126	22.4944
92.500000	70.077	21.4200
93.800003	70.014	20.4847
95.000000	69.948	19.7784
96.199997	69.882	19.1865
97.500000	69.809	18.6099
98.800003	69.735	18.0718
100.000000	69.667	17.5983
101.500000	69.591	16.9905
103.000000	69.520	16.3243
104.400002	69.447	15.7425
106.000000	69.366	15.2930
107.500000	69.311	15.0392
109.000000	69.271	14.7530
110.599998	69.225	14.2971
112.000000	69.175	13.8463
113.800003	69.124	13.4042
115.000000	69.114	13.2623
117.199997	69.153	13.2484
118.000000	69.178	13.2329
120.599998	69.189	12.4941
122.000000	69.100	11.7477
124.099998	68.904	10.7397
125.000000	68.828	10.3929
126.500000	68.726	9.9198
128.000000	68.648	9.5616
131.500000	68.482	8.9786
132.000000	68.460	8.9103
134.000000	68.391	8.6776
136.000000	68.359	8.5102
138.000000	68.340	8.3505
140.000000	68.306	8.0240
143.000000	68.216	7.0876
145.000000	68.165	6.4760
147.500000	68.115	5.9946
150.000000	68.037	5.8496
152.500000	67.944	5.7762
155.000000	67.883	5.4956
157.500000	67.848	5.0660
160.000000	67.807	4.7098
162.500000	67.745	4.4425
165.000000	67.664	4.3041
167.500000	67.595	4.3134
170.000000	67.556	4.2941
172.500000	67.535	4.1408
175.000000	67.530	3.9697
177.500000	67.548	3.8749
180.000000	67.565	3.7634
182.500000	67.506	3.5382
185.000000	67.332	3.4060
187.500000	67.123	3.4477
190.000000	66.992	3.3965
192.500000	66.959	3.2039
195.000000	66.979	3.0845
197.500000	67.001	3.0786
200.000000	67.001	3.0688
203.000000	66.983	2.9669
206.000000	66.967	2.8054
209.000000	66.949	2.6311
212.000000	66.922	2.4418
214.000000	66.897	2.3156
218.000000	66.841	2.1091
220.000000	66.809	2.0093
224.000000	66.738	1.7513
227.000000	66.686	1.5767
230.000000	66.635	1.5140
233.000000	66.578	1.5513
236.000000	66.516	1.6047
240.000000	66.440	1.5849
243.000000	66.391	1.5118
247.000000	66.330	1.4504
250.000000	66.282	1.4670
254.000000	66.210	1.5315
258.000000	66.135	1.5959
262.000000	66.072	1.6558
265.000000	66.034	1.7183
269.000000	65.988	1.8600
272.000000	65.953	1.9851
276.000000	65.906	2.0947
280.000000	65.852	2.1216
285.000000	65.768	2.1721
290.000000	65.667	2.3728
295.000000	65.556	2.7039
300.000000	65.461	3.0900
304.000000	65.425	3.4614
307.000000	65.424	3.7521
311.000000	65.438	4.0915
315.000000	65.451	4.3141
320.000000	65.440	4.3891
325.000000	65.388	4.3658
330.000000	65.302	4.4302
335.000000	65.208	4.6591
340.000000	65.131	5.0359
345.000000	65.076	5.4480
350.000000	65.028	5.8126
355.000000	64.974	6.1660
360.000000	64.915	6.5388
365.000000	64.853	6.9028
370.000000	64.794	7.2906
375.000000	64.744	7.7538
382.000000	64.690	8.4601
387.000000	64.657	8.9434
395.000000	64.603	9.6689
400.000000	64.563	10.1260
406.000000	64.513	10.7383
412.000000	64.467	11.4763
418.000000	64.429	12.2715
425.000000	64.394	13.0592
431.000000	64.375	13.6476
437.000000	64.362	14.2585
444.000000	64.347	15.0140
450.000000	64.341	15.6936
455.000000	64.343	16.2773
462.000000	64.358	17.0815
468.000000	64.379	17.7050
475.000000	64.405	18.3557
482.000000	64.428	18.9794
487.000000	64.441	19.4098
494.000000	64.456	19.9816
500.000000	64.463	20.4656
508.000000	64.468	21.1591
515.000000	64.472	21.8134
522.000000	64.483	22.4816
530.000000	64.516	23.2526
538.000000	64.572	24.0301
545.000000	64.623	24.6758
552.000000	64.661	25.3018
560.000000	64.696	26.0714
570.000000	64.762	27.0927
580.000000	64.863	27.9721
590.000000	64.972	28.5978
600.000000	65.081	29.0714
608.000000	65.179	29.3661
615.000000	65.268	29.5167
622.000000	65.347	29.5496
630.000000	65.412	29.4845
640.000000	65.445	29.3587
650.000000	65.425	29.3123
660.000000	65.375	29.4659
670.000000	65.321	29.8583
680.000000	65.271	30.4888
690.000000	65.237	31.3260
700.000000	65.231	32.2601
710.000000	65.249	33.1749
720.000000	65.278	33.9913
730.000000	65.298	34.7394
740.000000	65.305	35.5563
750.000000	65.314	36.5656
762.000000	65.358	38.0394
775.000000	65.479	39.6093
788.000000	65.645	40.8051
800.000000	65.800	41.6310
812.000000	65.944	42.3738
825.000000	66.102	43.1746
838.000000	66.278	43.8807
850.000000	66.449	44.3721
862.000000	66.613	44.7217
875.000000	66.782	44.9623
885.000000	66.906	45.0093
900.000000	67.058	44.7582
912.000000	67.127	44.3870
925.000000	67.142	44.0640
938.000000	67.107	44.0350
950.000000	67.053	44.3556
962.000000	67.001	44.9990
975.000000	66.962	46.0184
988.000000	66.953	47.3464
1000.000000	66.990	48.8065
1015.000000	67.115	50.7573
1030.000000	67.321	52.5159
1044.000000	67.552	53.8099
1060.000000	67.826	54.9048
1075.000000	68.077	55.6629
1090.000000	68.321	56.2455
1106.000000	68.566	56.7283
1120.000000	68.766	57.1447
1138.000000	69.032	57.7990
1150.000000	69.230	58.2287
1172.000000	69.628	58.8370
1180.000000	69.786	58.9839
1206.000000	70.320	58.8916
1220.000000	70.585	58.4696
1241.000000	70.934	57.6068
1250.000000	71.069	57.2046
1265.000000	71.280	56.5117
1280.000000	71.478	55.8038
1315.000000	71.930	54.0751
1320.000000	71.994	53.8025
1340.000000	72.259	52.6765
1360.000000	72.556	51.2216
1380.000000	72.825	48.9365
1400.000000	72.969	45.9673
1430.000000	72.889	41.4526
1450.000000	72.642	39.1486
1475.000000	72.202	38.0165
1500.000000	71.833	38.6469
1525.000000	71.641	40.0649
1550.000000	71.613	41.6345
1575.000000	71.715	43.0337
1600.000000	71.915	43.9264
1625.000000	72.121	44.0546
1650.000000	72.253	43.8168
1675.000000	72.331	43.9012
1700.000000	72.453	44.5154
1725.000000	72.695	45.3563
1750.000000	73.078	45.8555
1775.000000	73.553	45.4660
1800.000000	74.050	43.9493
1825.000000	74.514	41.1726
1850.000000	74.875	37.0109
1875.000000	75.040	31.5943
1900.000000	74.930	25.5698
1925.000000	74.510	19.9890
1950.000000	73.812	15.8697
1975.000000	72.919	13.7781
2000.000000	71.920	13.9056
2030.000000	70.722	17.0147
2060.000000	69.758	22.5947
2090.000000	69.212	29.2644
2120.000000	69.096	35.8809
2140.000000	69.205	39.8962
2180.000000	69.704	46.7668
2200.000000	70.068	49.7462
2240.000000	71.022	54.4996
2270.000000	71.845	56.3717
2300.000000	72.651	56.5762
2330.000000	73.383	55.2258
2360.000000	73.992	52.4564
2400.000000	74.515	46.8683
2430.000000	74.606	41.8902
2470.000000	74.258	36.1271
2500.000000	73.715	33.8965
2540.000000	72.896	34.4767
2580.000000	72.355	37.8506
2620.000000	72.270	41.7803
2650.000000	72.430	44.1053
2690.000000	72.767	45.9681
2720.000000	73.039	46.4975
2760.000000	73.349	46.1668
2800.000000	73.513	44.9969
2850.000000	73.442	43.7000
2900.000000	73.186	44.2058
2950.000000	73.025	46.8084
3000.000000	73.139	50.2421
3040.000000	73.385	52.8058
3070.000000	73.631	54.7062
3110.000000	74.098	57.4842
3150.000000	74.815	60.2522
3200.000000	75.994	62.0434
3250.000000	77.130	60.2499
3300.000000	77.913	55.3280
3350.000000	78.314	49.3901
3400.000000	78.461	43.9236
3450.000000	78.466	39.2199
3500.000000	78.367	35.1832
3550.000000	78.182	31.8805
3600.000000	77.949	29.3642
3650.000000	77.707	27.5599
3700.000000	77.480	26.3454
3750.000000	77.282	25.6340
3820.000000	77.087	25.3878
3870.000000	77.039	25.6353
3950.000000	77.218	26.3428
4000.000000	77.521	26.2826
4060.000000	77.974	24.7332
4120.000000	78.342	21.3812
4180.000000	78.518	16.9745
4250.000000	78.506	11.6057
4310.000000	78.376	7.1365
4370.000000	78.158	2.6570
4440.000000	77.745	-2.5042
4500.000000	77.233	-6.4105
4550.000000	76.716	-9.0093
4620.000000	75.926	-11.6243
4680.000000	75.232	-13.1949
4750.000000	74.391	-14.4562
4820.000000	73.467	-14.7670
4870.000000	72.751	-14.0335
4940.000000	71.731	-11.3281
5000.000000	70.934	-7.5453
5080.000000	70.148	-1.1716
5150.000000	69.792	4.7902
5220.000000	69.732	10.5185
5300.000000	69.967	16.3016
5380.000000	70.429	20.7531
5450.000000	70.916	23.3020
5520.000000	71.403	24.7272
5600.000000	71.940	25.3841
5700.000000	72.617	24.9677
5800.000000	73.280	22.7090
5900.000000	73.790	18.1610
6000.000000	73.983	11.7056
6080.000000	73.843	6.0079
6150.000000	73.496	1.3239
6220.000000	72.950	-2.4996
6300.000000	72.131	-5.2433
6400.000000	70.969	-6.0428
6500.000000	69.839	-4.6099
6600.000000	68.829	-1.6227
6700.000000	67.978	2.6031
6800.000000	67.330	7.6985
6900.000000	66.913	13.1653
7000.000000	66.713	18.6047
7100.000000	66.706	23.8238
7200.000000	66.871	28.6854
7300.000000	67.185	32.9727
7400.000000	67.607	36.4606
7500.000000	68.091	39.0797
7620.000000	68.706	41.0563
7750.000000	69.350	41.9055
7880.000000	69.958	41.7275
8000.000000	70.479	40.6477
8120.000000	70.922	38.7126
8250.000000	71.296	35.9282
8380.000000	71.564	32.6605
8500.000000	71.721	29.3282
8620.000000	71.794	25.7435
8750.000000	71.764	21.5846
8850.000000	71.648	18.3057
9000.000000	71.316	13.6582
9120.000000	70.932	10.4791
9250.000000	70.438	7.7131
9380.000000	69.892	5.6590
9500.000000	69.368	4.4340
9620.000000	68.864	3.7555
9750.000000	68.373	3.3376
9880.000000	67.939	2.8973
10000.000000	67.549	2.3464
10150.000000	67.016	1.6870
10300.000000	66.417	1.4163
10440.000000	65.803	1.7656
10600.000000	65.050	3.2422
10750.000000	64.332	6.1262
10900.000000	63.718	10.8256
11060.000000	63.420	17.6118
11200.000000	63.672	24.2249
11380.000000	64.726	31.5472
11500.000000	65.681	34.3705
11720.000000	67.364	33.9312
11800.000000	67.878	32.2758
12060.000000	69.228	24.3488
12200.000000	69.903	19.5323
12410.000000	71.062	11.3371
12500.000000	71.611	6.9623
12650.000000	72.509	-2.2878
12800.000000	73.254	-14.5648
13150.000000	73.650	-53.4991
13200.000000	73.512	-59.6252
13400.000000	72.479	-83.4486
13600.000000	70.775	-104.6479
13800.000000	68.567	-122.6769
14000.000000	66.020	-138.3506
14300.000000	61.847	-160.7920
14500.000000	58.969	-177.4691
14750.000000	55.523	157.1143
15000.000000	53.003	125.6033
15250.000000	52.348	91.0485
15500.000000	53.092	58.7795
15750.000000	54.191	32.0605
16000.000000	55.283	10.8900
16250.000000	56.387	-7.0930
16500.000000	57.463	-25.1281
16750.000000	58.342	-45.7964
17000.000000	58.786	-70.2900
17250.000000	58.547	-97.4209
17500.000000	57.462	-123.0708
17750.000000	55.570	-141.9049
18000.000000	53.246	-150.3844
18250.000000	51.636	-149.2721
18500.000000	52.297	-146.7296
18750.000000	54.379	-154.9171
19000.000000	56.312	-178.9473
19250.000000	57.624	144.9086
19500.000000	58.325	104.0170
19750.000000	58.574	67.2781
