* Measurement data measured by REW V5.31.1
* Source: Frequency response averaged data
* Format: Averaged data produced from the rms magnitudes of R ZMF Verite Closed, R ZMF Verite Closed, R ZMF Verite Closed
* Dated: Jun 30, 2024 12:13:26 PM
* REW Settings:
*  C-weighting compensation: Off
*  Target level: 75.0 dB
* Note: Averaged data produced from the rms magnitudes of R ZMF Verite Closed, R ZMF Verite Closed, R ZMF Verite Closed
* Measurement: RMS Average R
* Smoothing: 1/12 octave
* Frequency Step: 1/48 octave
* Start Frequency: 20.000 Hz
*
* Freq(Hz)	SPL(dB)
20.000000	75.895
20.299999	75.987
20.600000	76.062
20.900000	76.117
21.200001	76.152
21.400000	76.165
21.799999	76.185
22.000000	76.201
22.400000	76.277
22.700001	76.388
23.000000	76.548
23.299999	76.747
23.600000	76.961
24.000000	77.233
24.299999	77.403
24.700001	77.567
25.000000	77.645
25.400000	77.700
25.799999	77.724
26.200001	77.741
26.500000	77.759
26.900000	77.794
27.200001	77.827
27.600000	77.873
28.000000	77.921
28.500000	77.999
29.000000	78.126
29.500000	78.311
30.000000	78.514
30.400000	78.653
30.700001	78.733
31.100000	78.814
31.500000	78.885
32.000000	78.992
32.500000	79.123
33.000000	79.255
33.500000	79.363
34.000000	79.453
34.500000	79.542
35.000000	79.634
35.500000	79.715
36.000000	79.768
36.500000	79.798
37.000000	79.825
37.500000	79.871
38.200001	79.975
38.700001	80.057
39.500000	80.148
40.000000	80.170
40.599998	80.175
41.200001	80.180
41.799999	80.201
42.500000	80.244
43.099998	80.291
43.700001	80.344
44.400002	80.424
45.000000	80.527
45.500000	80.645
46.200001	80.832
46.799999	80.967
47.500000	81.049
48.200001	81.055
48.700001	81.043
49.400002	81.053
50.000000	81.107
50.799999	81.233
51.500000	81.361
52.200001	81.469
53.000000	81.533
53.799999	81.515
54.500000	81.454
55.200001	81.395
56.000000	81.369
57.000000	81.424
58.000000	81.560
59.000000	81.732
60.000000	81.895
60.799999	81.987
61.500000	82.025
62.200001	82.024
63.000000	81.988
64.000000	81.922
65.000000	81.863
66.000000	81.820
67.000000	81.778
68.000000	81.725
69.000000	81.669
70.000000	81.622
71.000000	81.590
72.000000	81.585
73.000000	81.614
74.000000	81.667
75.000000	81.742
76.199997	81.875
77.500000	82.058
78.800003	82.222
80.000000	82.334
81.199997	82.428
82.500000	82.515
83.800003	82.563
85.000000	82.568
86.199997	82.568
87.500000	82.616
88.500000	82.698
90.000000	82.873
91.199997	83.024
92.500000	83.170
93.800003	83.280
95.000000	83.350
96.199997	83.397
97.500000	83.444
98.800003	83.505
100.000000	83.579
101.500000	83.690
103.000000	83.801
104.400002	83.886
106.000000	83.952
107.500000	83.988
109.000000	84.006
110.599998	84.002
112.000000	83.979
113.800003	83.940
115.000000	83.929
117.199997	83.981
118.000000	84.020
120.599998	84.155
122.000000	84.213
124.099998	84.288
125.000000	84.322
126.500000	84.385
128.000000	84.452
131.500000	84.571
132.000000	84.580
134.000000	84.593
136.000000	84.588
138.000000	84.590
140.000000	84.618
143.000000	84.706
145.000000	84.778
147.500000	84.866
150.000000	84.944
152.500000	85.016
155.000000	85.080
157.500000	85.132
160.000000	85.172
162.500000	85.205
165.000000	85.233
167.500000	85.260
170.000000	85.286
172.500000	85.309
175.000000	85.326
177.500000	85.338
180.000000	85.346
182.500000	85.357
185.000000	85.370
187.500000	85.387
190.000000	85.406
192.500000	85.425
195.000000	85.446
197.500000	85.470
200.000000	85.500
203.000000	85.546
206.000000	85.606
209.000000	85.672
212.000000	85.734
214.000000	85.768
218.000000	85.815
220.000000	85.833
224.000000	85.875
227.000000	85.919
230.000000	85.975
233.000000	86.036
236.000000	86.095
240.000000	86.165
243.000000	86.211
247.000000	86.267
250.000000	86.309
254.000000	86.366
258.000000	86.423
262.000000	86.480
265.000000	86.524
269.000000	86.586
272.000000	86.636
276.000000	86.703
280.000000	86.770
285.000000	86.849
290.000000	86.924
295.000000	86.995
300.000000	87.065
304.000000	87.121
307.000000	87.164
311.000000	87.223
315.000000	87.285
320.000000	87.365
325.000000	87.442
330.000000	87.519
335.000000	87.595
340.000000	87.671
345.000000	87.745
350.000000	87.815
355.000000	87.877
360.000000	87.930
365.000000	87.974
370.000000	88.011
375.000000	88.044
382.000000	88.086
387.000000	88.114
395.000000	88.153
400.000000	88.174
406.000000	88.194
412.000000	88.205
418.000000	88.206
425.000000	88.199
431.000000	88.187
437.000000	88.171
444.000000	88.146
450.000000	88.121
455.000000	88.099
462.000000	88.067
468.000000	88.040
475.000000	88.009
482.000000	87.975
487.000000	87.948
494.000000	87.904
500.000000	87.862
508.000000	87.804
515.000000	87.757
522.000000	87.716
530.000000	87.682
538.000000	87.662
545.000000	87.654
552.000000	87.650
560.000000	87.650
570.000000	87.655
580.000000	87.668
590.000000	87.686
600.000000	87.707
608.000000	87.727
615.000000	87.747
622.000000	87.767
630.000000	87.792
640.000000	87.827
650.000000	87.866
660.000000	87.909
670.000000	87.956
680.000000	88.003
690.000000	88.049
700.000000	88.094
710.000000	88.140
720.000000	88.189
730.000000	88.240
740.000000	88.288
750.000000	88.328
762.000000	88.359
775.000000	88.369
788.000000	88.356
800.000000	88.328
812.000000	88.287
825.000000	88.233
838.000000	88.170
850.000000	88.108
862.000000	88.042
875.000000	87.969
885.000000	87.910
900.000000	87.817
912.000000	87.736
925.000000	87.644
938.000000	87.547
950.000000	87.456
962.000000	87.363
975.000000	87.262
988.000000	87.161
1000.000000	87.069
1015.000000	86.955
1030.000000	86.841
1044.000000	86.737
1060.000000	86.623
1075.000000	86.521
1090.000000	86.423
1106.000000	86.321
1120.000000	86.232
1138.000000	86.119
1150.000000	86.045
1172.000000	85.919
1180.000000	85.875
1206.000000	85.746
1220.000000	85.683
1241.000000	85.599
1250.000000	85.567
1265.000000	85.519
1280.000000	85.477
1315.000000	85.394
1320.000000	85.384
1340.000000	85.345
1360.000000	85.311
1380.000000	85.280
1400.000000	85.254
1430.000000	85.225
1450.000000	85.215
1475.000000	85.214
1500.000000	85.224
1525.000000	85.247
1550.000000	85.284
1575.000000	85.335
1600.000000	85.402
1625.000000	85.486
1650.000000	85.587
1675.000000	85.704
1700.000000	85.835
1725.000000	85.977
1750.000000	86.129
1775.000000	86.291
1800.000000	86.461
1825.000000	86.641
1850.000000	86.829
1875.000000	87.027
1900.000000	87.233
1925.000000	87.447
1950.000000	87.669
1975.000000	87.896
2000.000000	88.126
2030.000000	88.405
2060.000000	88.684
2090.000000	88.962
2120.000000	89.235
2140.000000	89.413
2180.000000	89.760
2200.000000	89.926
2240.000000	90.244
2270.000000	90.467
2300.000000	90.677
2330.000000	90.875
2360.000000	91.060
2400.000000	91.289
2430.000000	91.446
2470.000000	91.635
2500.000000	91.757
2540.000000	91.889
2580.000000	91.972
2620.000000	91.993
2650.000000	91.958
2690.000000	91.830
2720.000000	91.663
2760.000000	91.338
2800.000000	90.898
2850.000000	90.227
2900.000000	89.526
2950.000000	88.956
3000.000000	88.661
3040.000000	88.659
3070.000000	88.781
3110.000000	89.070
3150.000000	89.456
3200.000000	90.000
3250.000000	90.540
3300.000000	91.022
3350.000000	91.417
3400.000000	91.713
3450.000000	91.912
3500.000000	92.024
3550.000000	92.066
3600.000000	92.054
3650.000000	92.008
3700.000000	91.947
3750.000000	91.891
3820.000000	91.850
3870.000000	91.862
3950.000000	91.938
4000.000000	91.998
4060.000000	92.049
4120.000000	92.051
4180.000000	91.992
4250.000000	91.854
4310.000000	91.699
4370.000000	91.539
4440.000000	91.383
4500.000000	91.304
4550.000000	91.292
4620.000000	91.378
4680.000000	91.559
4750.000000	91.907
4820.000000	92.405
4870.000000	92.850
4940.000000	93.576
5000.000000	94.265
5080.000000	95.207
5150.000000	95.975
5220.000000	96.619
5300.000000	97.148
5380.000000	97.452
5450.000000	97.570
5520.000000	97.588
5600.000000	97.503
5700.000000	97.190
5800.000000	96.589
5900.000000	95.717
6000.000000	94.687
6080.000000	93.851
6150.000000	93.169
6220.000000	92.554
6300.000000	91.930
6400.000000	91.210
6500.000000	90.477
6600.000000	89.667
6700.000000	88.764
6800.000000	87.794
6900.000000	86.823
7000.000000	85.957
7100.000000	85.321
7200.000000	85.017
7300.000000	85.053
7400.000000	85.322
7500.000000	85.657
7620.000000	85.935
7750.000000	85.925
7880.000000	85.584
8000.000000	85.096
8120.000000	84.605
8250.000000	84.209
8380.000000	83.983
8500.000000	83.877
8620.000000	83.821
8750.000000	83.786
8850.000000	83.750
9000.000000	83.619
9120.000000	83.410
9250.000000	83.084
9380.000000	82.701
9500.000000	82.348
9620.000000	82.021
9750.000000	81.679
9880.000000	81.290
10000.000000	80.812
10150.000000	79.954
10300.000000	78.752
10440.000000	77.365
10600.000000	75.683
10750.000000	74.413
10900.000000	73.940
11060.000000	74.495
11200.000000	75.503
11380.000000	76.832
11500.000000	77.517
11720.000000	78.176
11800.000000	78.227
12060.000000	77.905
12200.000000	77.641
12410.000000	77.627
12500.000000	77.872
12650.000000	78.602
12800.000000	79.544
13150.000000	81.151
13200.000000	81.230
13400.000000	81.100
13600.000000	80.339
13800.000000	79.172
14000.000000	77.930
14300.000000	76.682
14500.000000	76.483
14750.000000	76.794
15000.000000	77.606
15250.000000	78.835
15500.000000	80.158
15750.000000	81.232
16000.000000	81.949
16250.000000	82.370
16500.000000	82.584
16750.000000	82.640
17000.000000	82.520
17250.000000	82.155
17500.000000	81.491
17750.000000	80.568
18000.000000	79.585
18250.000000	78.957
18500.000000	79.151
18750.000000	80.124
19000.000000	81.367
19250.000000	82.466
19500.000000	83.257
19750.000000	83.737
20000.000000	83.956
