* Measurement data measured by REW V5.31.1
* Source: Frequency response averaged data
* Format: Averaged data produced from the rms magnitudes of R ZMF Atrium Closed, R ZMF Atrium Closed, R ZMF Atrium Closed
* Dated: Jun 30, 2024 12:10:42 PM
* REW Settings:
*  C-weighting compensation: Off
*  Target level: 75.0 dB
* Note: Averaged data produced from the rms magnitudes of R ZMF Atrium Closed, R ZMF Atrium Closed, R ZMF Atrium Closed
* Measurement: RMS Average R
* Smoothing: 1/12 octave
* Frequency Step: 1/48 octave
* Start Frequency: 20.000 Hz
*
* Freq(Hz)	SPL(dB)
20.000000	77.892
20.299999	78.017
20.600000	78.137
20.900000	78.258
21.200001	78.385
21.400000	78.473
21.799999	78.646
22.000000	78.726
22.400000	78.862
22.700001	78.942
23.000000	79.009
23.299999	79.072
23.600000	79.143
24.000000	79.260
24.299999	79.366
24.700001	79.523
25.000000	79.644
25.400000	79.805
25.799999	79.966
26.200001	80.129
26.500000	80.253
26.900000	80.413
27.200001	80.526
27.600000	80.661
28.000000	80.780
28.500000	80.918
29.000000	81.047
29.500000	81.163
30.000000	81.262
30.400000	81.331
30.700001	81.381
31.100000	81.450
31.500000	81.522
32.000000	81.612
32.500000	81.696
33.000000	81.773
33.500000	81.844
34.000000	81.909
34.500000	81.970
35.000000	82.030
35.500000	82.089
36.000000	82.142
36.500000	82.190
37.000000	82.238
37.500000	82.291
38.200001	82.361
38.700001	82.393
39.500000	82.421
40.000000	82.439
40.599998	82.463
41.200001	82.480
41.799999	82.492
42.500000	82.517
43.099998	82.544
43.700001	82.564
44.400002	82.582
45.000000	82.618
45.500000	82.667
46.200001	82.744
46.799999	82.804
47.500000	82.867
48.200001	82.929
48.700001	82.968
49.400002	83.006
50.000000	83.023
50.799999	83.042
51.500000	83.061
52.200001	83.076
53.000000	83.076
53.799999	83.059
54.500000	83.034
55.200001	83.001
56.000000	82.945
57.000000	82.840
58.000000	82.707
59.000000	82.583
60.000000	82.501
60.799999	82.465
61.500000	82.445
62.200001	82.425
63.000000	82.397
64.000000	82.354
65.000000	82.314
66.000000	82.284
67.000000	82.255
68.000000	82.213
69.000000	82.150
70.000000	82.076
71.000000	82.011
72.000000	81.971
73.000000	81.963
74.000000	81.991
75.000000	82.055
76.199997	82.156
77.500000	82.245
78.800003	82.255
80.000000	82.183
81.199997	82.061
82.500000	81.931
83.800003	81.854
85.000000	81.848
86.199997	81.897
87.500000	81.984
88.500000	82.055
90.000000	82.136
91.199997	82.166
92.500000	82.159
93.800003	82.117
95.000000	82.057
96.199997	81.988
97.500000	81.918
98.800003	81.861
100.000000	81.820
101.500000	81.772
103.000000	81.716
104.400002	81.650
106.000000	81.563
107.500000	81.487
109.000000	81.431
110.599998	81.398
112.000000	81.380
113.800003	81.357
115.000000	81.332
117.199997	81.268
118.000000	81.241
120.599998	81.155
122.000000	81.112
124.099998	81.043
125.000000	81.011
126.500000	80.951
128.000000	80.886
131.500000	80.729
132.000000	80.707
134.000000	80.624
136.000000	80.543
138.000000	80.462
140.000000	80.382
143.000000	80.262
145.000000	80.184
147.500000	80.092
150.000000	80.004
152.500000	79.913
155.000000	79.813
157.500000	79.705
160.000000	79.595
162.500000	79.490
165.000000	79.397
167.500000	79.323
170.000000	79.270
172.500000	79.228
175.000000	79.184
177.500000	79.128
180.000000	79.057
182.500000	78.980
185.000000	78.913
187.500000	78.867
190.000000	78.850
192.500000	78.857
195.000000	78.878
197.500000	78.902
200.000000	78.920
203.000000	78.933
206.000000	78.945
209.000000	78.984
212.000000	79.068
214.000000	79.148
218.000000	79.335
220.000000	79.430
224.000000	79.616
227.000000	79.759
230.000000	79.907
233.000000	80.060
236.000000	80.212
240.000000	80.406
243.000000	80.544
247.000000	80.719
250.000000	80.847
254.000000	81.014
258.000000	81.174
262.000000	81.325
265.000000	81.431
269.000000	81.564
272.000000	81.657
276.000000	81.773
280.000000	81.879
285.000000	81.998
290.000000	82.100
295.000000	82.186
300.000000	82.255
304.000000	82.300
307.000000	82.328
311.000000	82.361
315.000000	82.389
320.000000	82.418
325.000000	82.438
330.000000	82.446
335.000000	82.441
340.000000	82.426
345.000000	82.402
350.000000	82.370
355.000000	82.328
360.000000	82.277
365.000000	82.217
370.000000	82.151
375.000000	82.078
382.000000	81.966
387.000000	81.878
395.000000	81.725
400.000000	81.621
406.000000	81.488
412.000000	81.349
418.000000	81.207
425.000000	81.039
431.000000	80.893
437.000000	80.749
444.000000	80.585
450.000000	80.453
455.000000	80.351
462.000000	80.222
468.000000	80.128
475.000000	80.038
482.000000	79.967
487.000000	79.925
494.000000	79.871
500.000000	79.821
508.000000	79.747
515.000000	79.674
522.000000	79.595
530.000000	79.501
538.000000	79.408
545.000000	79.331
552.000000	79.262
560.000000	79.190
570.000000	79.112
580.000000	79.046
590.000000	78.994
600.000000	78.962
608.000000	78.954
615.000000	78.960
622.000000	78.975
630.000000	79.005
640.000000	79.059
650.000000	79.128
660.000000	79.207
670.000000	79.293
680.000000	79.386
690.000000	79.485
700.000000	79.588
710.000000	79.690
720.000000	79.786
730.000000	79.872
740.000000	79.953
750.000000	80.035
762.000000	80.140
775.000000	80.264
788.000000	80.393
800.000000	80.509
812.000000	80.617
825.000000	80.725
838.000000	80.818
850.000000	80.886
862.000000	80.935
875.000000	80.968
885.000000	80.982
900.000000	80.992
912.000000	80.993
925.000000	80.989
938.000000	80.978
950.000000	80.962
962.000000	80.942
975.000000	80.919
988.000000	80.895
1000.000000	80.872
1015.000000	80.842
1030.000000	80.807
1044.000000	80.773
1060.000000	80.730
1075.000000	80.688
1090.000000	80.648
1106.000000	80.607
1120.000000	80.572
1138.000000	80.528
1150.000000	80.497
1172.000000	80.433
1180.000000	80.409
1206.000000	80.334
1220.000000	80.297
1241.000000	80.249
1250.000000	80.232
1265.000000	80.206
1280.000000	80.184
1315.000000	80.151
1320.000000	80.149
1340.000000	80.144
1360.000000	80.146
1380.000000	80.156
1400.000000	80.171
1430.000000	80.206
1450.000000	80.236
1475.000000	80.286
1500.000000	80.350
1525.000000	80.431
1550.000000	80.531
1575.000000	80.648
1600.000000	80.777
1625.000000	80.909
1650.000000	81.034
1675.000000	81.145
1700.000000	81.234
1725.000000	81.291
1750.000000	81.309
1775.000000	81.279
1800.000000	81.192
1825.000000	81.039
1850.000000	80.816
1875.000000	80.525
1900.000000	80.182
1925.000000	79.818
1950.000000	79.482
1975.000000	79.236
2000.000000	79.141
2030.000000	79.275
2060.000000	79.668
2090.000000	80.252
2120.000000	80.945
2140.000000	81.437
2180.000000	82.434
2200.000000	82.924
2240.000000	83.860
2270.000000	84.514
2300.000000	85.125
2330.000000	85.692
2360.000000	86.221
2400.000000	86.877
2430.000000	87.337
2470.000000	87.911
2500.000000	88.314
2540.000000	88.816
2580.000000	89.279
2620.000000	89.704
2650.000000	90.001
2690.000000	90.370
2720.000000	90.627
2760.000000	90.946
2800.000000	91.237
2850.000000	91.563
2900.000000	91.844
2950.000000	92.077
3000.000000	92.265
3040.000000	92.384
3070.000000	92.458
3110.000000	92.539
3150.000000	92.607
3200.000000	92.686
3250.000000	92.777
3300.000000	92.906
3350.000000	93.093
3400.000000	93.350
3450.000000	93.670
3500.000000	94.026
3550.000000	94.379
3600.000000	94.687
3650.000000	94.916
3700.000000	95.045
3750.000000	95.063
3820.000000	94.911
3870.000000	94.695
3950.000000	94.222
4000.000000	93.881
4060.000000	93.459
4120.000000	93.048
4180.000000	92.668
4250.000000	92.286
4310.000000	92.021
4370.000000	91.823
4440.000000	91.682
4500.000000	91.646
4550.000000	91.680
4620.000000	91.833
4680.000000	92.067
4750.000000	92.467
4820.000000	93.005
4870.000000	93.470
4940.000000	94.220
5000.000000	94.933
5080.000000	95.926
5150.000000	96.770
5220.000000	97.517
5300.000000	98.169
5380.000000	98.528
5450.000000	98.558
5520.000000	98.306
5600.000000	97.680
5700.000000	96.445
5800.000000	94.828
5900.000000	92.985
6000.000000	91.072
6080.000000	89.572
6150.000000	88.315
6220.000000	87.120
6300.000000	85.832
6400.000000	84.325
6500.000000	82.913
6600.000000	81.587
6700.000000	80.344
6800.000000	79.183
6900.000000	78.097
7000.000000	77.098
7100.000000	76.263
7200.000000	75.781
7300.000000	75.857
7400.000000	76.472
7500.000000	77.340
7620.000000	78.291
7750.000000	78.894
7880.000000	78.938
8000.000000	78.500
8120.000000	77.680
8250.000000	76.498
8380.000000	75.186
8500.000000	74.015
8620.000000	73.005
8750.000000	72.223
8850.000000	71.952
9000.000000	72.228
9120.000000	72.950
9250.000000	73.932
9380.000000	74.843
9500.000000	75.486
9620.000000	75.906
9750.000000	76.123
9880.000000	76.134
10000.000000	76.008
10150.000000	75.751
10300.000000	75.511
10440.000000	75.433
10600.000000	75.602
10750.000000	75.965
10900.000000	76.408
11060.000000	76.876
11200.000000	77.253
11380.000000	77.656
11500.000000	77.830
11720.000000	77.872
11800.000000	77.806
12060.000000	77.561
12200.000000	77.627
12410.000000	78.220
12500.000000	78.651
12650.000000	79.542
12800.000000	80.547
13150.000000	82.657
13200.000000	82.880
13400.000000	83.495
13600.000000	83.619
13800.000000	83.239
14000.000000	82.384
14300.000000	80.381
14500.000000	78.819
14750.000000	77.271
15000.000000	76.836
15250.000000	77.221
15500.000000	77.798
15750.000000	78.466
16000.000000	79.395
16250.000000	80.674
16500.000000	82.172
16750.000000	83.589
17000.000000	84.616
17250.000000	85.045
17500.000000	84.792
17750.000000	83.891
18000.000000	82.464
18250.000000	80.699
18500.000000	78.846
18750.000000	77.194
19000.000000	75.997
19250.000000	75.351
19500.000000	75.144
19750.000000	75.155
20000.000000	75.202
