* Measurement data measured by REW V5.31.1
* Source: Frequency response averaged data
* Format: Averaged data produced from the rms magnitudes of R ZMF Aeolus, R ZMF Aeolus, R ZMF Aeolus
* Dated: Jun 30, 2024 12:09:13 PM
* REW Settings:
*  C-weighting compensation: Off
*  Target level: 75.0 dB
* Note: Averaged data produced from the rms magnitudes of R ZMF Aeolus, R ZMF Aeolus, R ZMF Aeolus
* Measurement: RMS Average R
* Smoothing: 1/12 octave
* Frequency Step: 1/48 octave
* Start Frequency: 20.000 Hz
*
* Freq(Hz)	SPL(dB)
20.000000	77.615
20.299999	77.795
20.600000	77.970
20.900000	78.141
21.200001	78.311
21.400000	78.425
21.799999	78.655
22.000000	78.769
22.400000	78.989
22.700001	79.144
23.000000	79.287
23.299999	79.421
23.600000	79.548
24.000000	79.715
24.299999	79.840
24.700001	80.004
25.000000	80.122
25.400000	80.268
25.799999	80.401
26.200001	80.524
26.500000	80.612
26.900000	80.724
27.200001	80.807
27.600000	80.913
28.000000	81.017
28.500000	81.146
29.000000	81.275
29.500000	81.401
30.000000	81.520
30.400000	81.611
30.700001	81.678
31.100000	81.766
31.500000	81.853
32.000000	81.959
32.500000	82.060
33.000000	82.159
33.500000	82.258
34.000000	82.356
34.500000	82.450
35.000000	82.536
35.500000	82.618
36.000000	82.699
36.500000	82.785
37.000000	82.872
37.500000	82.955
38.200001	83.060
38.700001	83.128
39.500000	83.234
40.000000	83.298
40.599998	83.368
41.200001	83.429
41.799999	83.484
42.500000	83.546
43.099998	83.597
43.700001	83.647
44.400002	83.708
45.000000	83.761
45.500000	83.803
46.200001	83.856
46.799999	83.897
47.500000	83.944
48.200001	83.993
48.700001	84.027
49.400002	84.074
50.000000	84.113
50.799999	84.164
51.500000	84.209
52.200001	84.257
53.000000	84.315
53.799999	84.376
54.500000	84.429
55.200001	84.480
56.000000	84.536
57.000000	84.602
58.000000	84.663
59.000000	84.717
60.000000	84.760
60.799999	84.787
61.500000	84.808
62.200001	84.827
63.000000	84.848
64.000000	84.876
65.000000	84.904
66.000000	84.930
67.000000	84.953
68.000000	84.974
69.000000	84.993
70.000000	85.012
71.000000	85.030
72.000000	85.049
73.000000	85.068
74.000000	85.086
75.000000	85.102
76.199997	85.118
77.500000	85.130
78.800003	85.141
80.000000	85.152
81.199997	85.167
82.500000	85.187
83.800003	85.211
85.000000	85.237
86.199997	85.267
87.500000	85.304
88.500000	85.333
90.000000	85.378
91.199997	85.414
92.500000	85.451
93.800003	85.487
95.000000	85.518
96.199997	85.547
97.500000	85.576
98.800003	85.603
100.000000	85.625
101.500000	85.652
103.000000	85.679
104.400002	85.705
106.000000	85.734
107.500000	85.761
109.000000	85.786
110.599998	85.809
112.000000	85.827
113.800003	85.846
115.000000	85.857
117.199997	85.874
118.000000	85.880
120.599998	85.903
122.000000	85.919
124.099998	85.947
125.000000	85.959
126.500000	85.978
128.000000	85.995
131.500000	86.019
132.000000	86.022
134.000000	86.031
136.000000	86.036
138.000000	86.037
140.000000	86.032
143.000000	86.018
145.000000	86.006
147.500000	85.992
150.000000	85.980
152.500000	85.967
155.000000	85.956
157.500000	85.951
160.000000	85.949
162.500000	85.942
165.000000	85.929
167.500000	85.915
170.000000	85.904
172.500000	85.897
175.000000	85.893
177.500000	85.891
180.000000	85.891
182.500000	85.892
185.000000	85.894
187.500000	85.895
190.000000	85.896
192.500000	85.895
195.000000	85.894
197.500000	85.893
200.000000	85.894
203.000000	85.901
206.000000	85.912
209.000000	85.925
212.000000	85.937
214.000000	85.947
218.000000	85.968
220.000000	85.980
224.000000	86.003
227.000000	86.019
230.000000	86.034
233.000000	86.051
236.000000	86.070
240.000000	86.096
243.000000	86.117
247.000000	86.145
250.000000	86.162
254.000000	86.180
258.000000	86.195
262.000000	86.211
265.000000	86.225
269.000000	86.248
272.000000	86.267
276.000000	86.291
280.000000	86.311
285.000000	86.330
290.000000	86.346
295.000000	86.368
300.000000	86.392
304.000000	86.407
307.000000	86.416
311.000000	86.426
315.000000	86.433
320.000000	86.434
325.000000	86.422
330.000000	86.392
335.000000	86.344
340.000000	86.277
345.000000	86.193
350.000000	86.102
355.000000	86.019
360.000000	85.956
365.000000	85.922
370.000000	85.913
375.000000	85.924
382.000000	85.954
387.000000	85.975
395.000000	85.993
400.000000	85.996
406.000000	86.001
412.000000	86.016
418.000000	86.041
425.000000	86.073
431.000000	86.094
437.000000	86.110
444.000000	86.126
450.000000	86.145
455.000000	86.169
462.000000	86.214
468.000000	86.256
475.000000	86.303
482.000000	86.345
487.000000	86.372
494.000000	86.399
500.000000	86.412
508.000000	86.424
515.000000	86.446
522.000000	86.493
530.000000	86.578
538.000000	86.680
545.000000	86.766
552.000000	86.841
560.000000	86.909
570.000000	86.970
580.000000	87.014
590.000000	87.055
600.000000	87.097
608.000000	87.130
615.000000	87.154
622.000000	87.171
630.000000	87.182
640.000000	87.185
650.000000	87.181
660.000000	87.180
670.000000	87.196
680.000000	87.235
690.000000	87.291
700.000000	87.357
710.000000	87.429
720.000000	87.509
730.000000	87.602
740.000000	87.708
750.000000	87.823
762.000000	87.966
775.000000	88.116
788.000000	88.250
800.000000	88.349
812.000000	88.418
825.000000	88.457
838.000000	88.459
850.000000	88.430
862.000000	88.376
875.000000	88.295
885.000000	88.224
900.000000	88.114
912.000000	88.030
925.000000	87.945
938.000000	87.864
950.000000	87.789
962.000000	87.706
975.000000	87.606
988.000000	87.495
1000.000000	87.388
1015.000000	87.254
1030.000000	87.124
1044.000000	87.009
1060.000000	86.885
1075.000000	86.770
1090.000000	86.654
1106.000000	86.528
1120.000000	86.417
1138.000000	86.274
1150.000000	86.183
1172.000000	86.035
1180.000000	85.992
1206.000000	85.894
1220.000000	85.870
1241.000000	85.864
1250.000000	85.870
1265.000000	85.887
1280.000000	85.910
1315.000000	85.964
1320.000000	85.971
1340.000000	85.999
1360.000000	86.027
1380.000000	86.057
1400.000000	86.088
1430.000000	86.142
1450.000000	86.187
1475.000000	86.262
1500.000000	86.362
1525.000000	86.479
1550.000000	86.601
1575.000000	86.709
1600.000000	86.793
1625.000000	86.846
1650.000000	86.885
1675.000000	86.946
1700.000000	87.070
1725.000000	87.264
1750.000000	87.503
1775.000000	87.751
1800.000000	87.982
1825.000000	88.190
1850.000000	88.376
1875.000000	88.548
1900.000000	88.713
1925.000000	88.878
1950.000000	89.048
1975.000000	89.226
2000.000000	89.409
2030.000000	89.624
2060.000000	89.820
2090.000000	89.989
2120.000000	90.130
2140.000000	90.212
2180.000000	90.361
2200.000000	90.430
2240.000000	90.557
2270.000000	90.635
2300.000000	90.699
2330.000000	90.755
2360.000000	90.815
2400.000000	90.910
2430.000000	90.997
2470.000000	91.128
2500.000000	91.236
2540.000000	91.391
2580.000000	91.555
2620.000000	91.728
2650.000000	91.862
2690.000000	92.045
2720.000000	92.187
2760.000000	92.380
2800.000000	92.576
2850.000000	92.820
2900.000000	93.054
2950.000000	93.265
3000.000000	93.440
3040.000000	93.546
3070.000000	93.604
3110.000000	93.649
3150.000000	93.659
3200.000000	93.624
3250.000000	93.540
3300.000000	93.414
3350.000000	93.246
3400.000000	93.036
3450.000000	92.775
3500.000000	92.456
3550.000000	92.073
3600.000000	91.625
3650.000000	91.120
3700.000000	90.576
3750.000000	90.012
3820.000000	89.231
3870.000000	88.698
3950.000000	87.906
4000.000000	87.452
4060.000000	86.949
4120.000000	86.494
4180.000000	86.082
4250.000000	85.645
4310.000000	85.307
4370.000000	85.032
4440.000000	84.866
4500.000000	84.930
4550.000000	85.160
4620.000000	85.731
4680.000000	86.364
4750.000000	87.111
4820.000000	87.706
4870.000000	87.986
4940.000000	88.173
5000.000000	88.206
5080.000000	88.245
5150.000000	88.465
5220.000000	89.002
5300.000000	90.040
5380.000000	91.398
5450.000000	92.665
5520.000000	93.852
5600.000000	94.971
5700.000000	95.871
5800.000000	96.144
5900.000000	95.804
6000.000000	94.929
6080.000000	93.928
6150.000000	92.896
6220.000000	91.770
6300.000000	90.434
6400.000000	88.781
6500.000000	87.233
6600.000000	85.831
6700.000000	84.559
6800.000000	83.355
6900.000000	82.146
7000.000000	80.869
7100.000000	79.484
7200.000000	77.981
7300.000000	76.398
7400.000000	74.904
7500.000000	73.926
7620.000000	74.136
7750.000000	75.886
7880.000000	78.183
8000.000000	80.278
8120.000000	82.216
8250.000000	84.081
8380.000000	85.661
8500.000000	86.838
8620.000000	87.732
8750.000000	88.381
8850.000000	88.654
9000.000000	88.695
9120.000000	88.406
9250.000000	87.776
9380.000000	86.853
9500.000000	85.811
9620.000000	84.692
9750.000000	83.535
9880.000000	82.544
10000.000000	81.785
10150.000000	80.949
10300.000000	80.121
10440.000000	79.321
10600.000000	78.425
10750.000000	77.668
10900.000000	77.000
11060.000000	76.318
11200.000000	75.677
11380.000000	74.741
11500.000000	74.078
11720.000000	73.193
11800.000000	73.188
12060.000000	74.977
12200.000000	76.663
12410.000000	79.211
12500.000000	80.196
12650.000000	81.648
12800.000000	82.858
13150.000000	84.729
13200.000000	84.886
13400.000000	85.232
13600.000000	85.131
13800.000000	84.598
14000.000000	83.657
14300.000000	81.570
14500.000000	79.839
14750.000000	77.532
15000.000000	75.428
15250.000000	73.873
15500.000000	72.976
15750.000000	72.758
16000.000000	73.151
16250.000000	73.849
16500.000000	74.569
16750.000000	75.217
17000.000000	75.780
17250.000000	76.199
17500.000000	76.343
17750.000000	76.080
18000.000000	75.373
18250.000000	74.372
18500.000000	73.451
18750.000000	73.024
19000.000000	73.113
19250.000000	73.369
19500.000000	73.507
19750.000000	73.475
20000.000000	73.395
